#Acq. time (s)=	10
#Accumulations=	10
#Range (cm-¹)=	400...3500
#Windows=	3
#Auto scanning=	Off
#Autofocus=	Off
#AutoExposure=	Off
#Spike filter=	Multiple accum.
#Delay time (s)=	0
#Binning=	1
#Readout mode=	Signal
#DeNoise=	Off
#ICS correction=	On
#Dark correction=	Off
#Inst. Process=	Off
#Detector Gain=	Best Dynamic Range
#Detector ADC=	45 kHz       
#Detector temperature (°C)=	-60.1
#Instrument=	LabRAM HR Evol
#Detector=	Syncerity OE
#Objective=	x50_VIS_LWD
#Grating=	600 (500nm)
#ND Filter=	50%
#Laser=	532nm_Edge
#Hole=	199.981
#Range=	Visible
#E-Cal_Neon=	0
#StageXY=	75x50mm Scan+
#StageZ=	Z motor
#X (µm)=	0
#Y (µm)=	0
#Z (µm)=	1193
#Spectral res.(cm-¹)=	12.8
#Full time(mm:ss)=	5:19
#AC=	Calibrated 2025-06-30 10:26
#Project=	
#Sample=	
#Site=	
#Title=	D_99
#Remark=	
#Date=	30.06.2025 17:10 (India Standard Time)
#Acquired=	30.06.2025 17:10:00 (India Standard Time)
#AxisType[0]=Intens
#AxisUnit[0]=Cnt
#AxisType[1]=Spectr
#AxisUnit[1]=1/cm
400.17	27228.3
401.945	27062.7
403.717	27163.9
405.491	27096
407.263	27055.7
409.036	27025.6
410.807	26915.6
412.58	26869.2
414.35	26869.2
416.122	26888.3
417.892	26809.3
419.663	26766.4
421.432	26756.9
423.203	26788.2
424.971	26734.9
426.741	26774.6
428.509	26695.2
430.276	26650.6
432.045	26685.5
433.812	26615.5
435.58	26639.7
437.346	26539.7
439.111	26512.6
440.879	26535.5
442.643	26448.1
444.408	26513.3
446.174	26432.3
447.938	26465.9
449.701	26398.3
451.467	26514.1
453.229	26392.4
454.992	26416.7
456.756	26381.9
458.518	26225.9
460.279	26278.1
462.043	26047.7
463.803	26152.5
465.564	26107.7
467.326	26086.7
469.086	26035.6
470.845	26057.7
472.604	25937.5
474.365	25921.2
476.123	25946.3
477.882	25853.4
479.639	25828.1
481.399	25747.7
483.156	25793.7
484.913	25801.1
486.669	25782.2
488.425	25723.3
490.183	25769.8
491.938	25717.5
493.693	25653.3
495.448	25674.2
497.202	25671.8
498.956	25677.8
500.712	25684.9
502.465	25745.4
504.218	25782.1
505.971	25669.8
507.723	25715.5
509.475	25687
511.227	25764.5
512.981	25680.3
514.732	25788.1
516.482	25820.3
518.233	25716.6
519.983	25612
521.732	25629.8
523.482	25502.7
525.231	25430.3
526.979	25427.1
528.728	25235.8
530.476	25300.8
532.223	25288.8
533.971	25134.3
535.718	25181.7
537.464	25030.6
539.211	25065.2
540.956	24939.4
542.702	24912.1
544.447	24869.8
546.192	24816.9
547.937	24852.2
549.681	24697.3
551.425	24749.6
553.169	24652.7
554.912	24706.9
556.655	24660.7
558.398	24520.6
560.14	24553.5
561.882	24418.2
563.624	24463.7
565.365	24483.9
567.106	24542.9
568.847	24598.6
570.585	24568.7
572.325	24535.2
574.065	24619.8
575.804	24737.9
577.543	24749.1
579.282	24836
581.02	24862.3
582.756	24877.3
584.494	25001.4
586.231	24949.4
587.968	25097.3
589.705	25193.1
591.441	25096.9
593.175	25237.2
594.911	25414.7
596.646	25412.8
598.381	25517.7
600.116	25538.2
601.848	25582
603.582	25627.7
605.316	25560.7
607.049	25559.7
608.78	25441.3
610.513	25394.5
612.245	25195.9
613.977	25104.2
615.707	25058
617.438	25016.9
619.17	24862.2
620.898	24834.8
622.629	24787.1
624.359	24675.3
626.086	24618
627.816	24643.4
629.545	24556.6
631.272	24436.1
633	24470
634.728	24466
636.454	24464.1
638.181	24420.3
639.908	24550.2
641.633	24496.9
643.36	24433.5
645.084	24452.1
646.81	24396.2
648.535	24309.1
650.258	24163.6
651.983	24190.6
653.705	24199.8
655.43	24161.5
657.153	24031.4
658.875	24049.1
660.598	23992.4
662.319	23972.4
664.041	23850.7
665.762	23937.2
667.483	23945.9
669.203	23898
670.924	23821.9
672.643	23787
674.364	23840.1
676.082	23793.6
677.802	23765.9
679.519	23727.7
681.238	23753.9
682.955	23818.1
684.674	23742.2
686.39	23769.4
688.106	23815.3
689.824	23751.8
691.539	23888.5
693.256	23868.9
694.971	23929.5
696.685	23866.1
698.401	24005.3
700.115	24088.8
701.83	23994.9
703.543	24105.1
705.256	24073.4
706.97	24082.6
708.682	24153.4
710.394	24136.9
712.107	24116.7
713.818	24342.8
715.529	24420.2
717.241	24481.6
718.952	24676.6
720.661	24717.2
722.373	24871.5
724.082	24878.7
725.791	24851
727.501	24930.5
729.209	24873.9
730.917	24696.5
732.625	24737.5
734.334	24805.9
736.041	24732.8
737.747	24786.5
739.453	24623.5
741.161	24638.4
742.867	24705.9
744.572	24574.8
746.277	24603.2
747.982	24738
749.688	24654.9
751.392	24658.6
753.096	24714.5
754.799	24746.5
756.502	24839.6
758.205	24806
759.909	24871.2
761.611	24841.9
763.313	24861.7
765.014	24946
766.715	24878.4
768.416	25063.8
770.116	25036.1
771.816	24978.2
773.516	24954.8
775.218	24984.3
776.917	25096.7
778.616	24997.8
780.314	25041.8
782.012	24960.4
783.71	25135
785.408	25097.1
787.105	25094.3
788.802	25161.2
790.498	25187
792.195	25208.6
793.891	25271.5
795.586	25369.2
797.281	25403.4
798.977	25599.5
800.671	25606.2
802.365	25756.6
804.06	25875.3
805.753	26109.1
807.447	26160
809.14	26271.5
810.832	26368.1
812.525	26498.3
814.217	26659.6
815.907	26896.3
817.598	27041.6
819.289	27214.4
820.98	27365.6
822.671	27678.9
824.361	27919.7
826.051	28129.2
827.74	28309.6
829.43	28466.1
831.117	28676.5
832.805	28804.4
834.494	29019.8
836.182	29212.1
837.869	29394.5
839.557	29586.4
841.242	29780.1
842.928	30025.7
844.615	30189.1
846.301	30365.4
847.987	30418.8
849.67	30448
851.355	30436.5
853.04	30393
854.724	30507.9
856.407	30496.6
858.091	30616.4
859.774	30791.3
861.457	31028.3
863.138	31291.9
864.821	31564.5
866.503	31709
868.183	31898.3
869.865	31989.4
871.546	31930.5
873.225	31886.6
874.906	31748.5
876.586	31519.4
878.264	31246
879.944	31139.4
881.624	30983.2
883.301	30885.4
884.98	30818.7
886.658	31040.3
888.334	31168.2
890.012	31321.6
891.688	31186.7
893.365	30897.6
895.042	30554.2
896.717	30104.5
898.393	29824.9
900.067	29514.5
901.743	29184.6
903.416	29066.9
905.091	28785
906.766	28589
908.438	28572.1
910.112	28403.2
911.784	28402.1
913.458	28291.4
915.129	28275.8
916.802	28286.1
918.472	28180.7
920.145	28214.2
921.815	28022.8
923.484	27994.8
925.156	27812
926.825	27663.4
928.495	27519.6
930.164	27488.2
931.834	27312.3
933.501	27252.1
935.171	27144
936.838	27073
938.505	27070.9
940.173	26961.8
941.84	26980.3
943.505	26864.6
945.173	26884.5
946.838	26880
948.505	26888.5
950.17	26942.3
951.834	26980.9
953.5	26929.7
955.164	26912.8
956.827	26994.7
958.492	27005.6
960.155	26986.3
961.818	27112.9
963.48	27151
965.144	27145.7
966.805	27159
968.467	27084.2
970.128	27019.9
971.79	26952.9
973.45	26804.3
975.11	26727.7
976.77	26492.3
978.432	26400.9
980.091	26260.9
981.749	26387.5
983.408	26246.4
985.068	26206.1
986.726	26376.5
988.383	26403.7
990.041	26528.5
991.698	26665
993.354	26767.9
995.012	27032.5
996.668	27403.1
998.324	27902.2
999.979	28458.2
1001.63	29176.9
1003.29	29599.8
1004.94	29904.8
1006.6	29821.3
1008.25	29528.9
1009.91	29285.1
1011.56	28926.3
1013.21	28811.7
1014.87	28646.4
1016.52	28578.9
1018.17	28449
1019.82	28473.5
1021.47	28488.5
1023.12	28430.2
1024.78	28419.7
1026.43	28289.1
1028.08	28270.1
1029.73	28251.5
1031.38	28307.7
1033.02	28284.7
1034.67	28302
1036.32	28271
1037.97	28314.2
1039.62	28286.4
1041.27	28344.9
1042.91	28392
1044.56	28257.8
1046.21	28337.6
1047.85	28485.7
1049.5	28521.1
1051.14	28656.7
1052.79	28932.2
1054.43	29233.6
1056.08	29778
1057.72	30294.3
1059.37	30964.8
1061.01	31742.5
1062.65	32325.3
1064.3	32805.1
1065.94	32798.8
1067.58	32441.6
1069.23	32151.2
1070.87	31979.5
1072.51	32254.4
1074.15	32598.5
1075.79	33066
1077.43	33411.4
1079.07	33651.3
1080.71	33686.8
1082.35	33607.4
1083.99	33350.1
1085.63	33022.5
1087.27	32667.7
1088.91	32421
1090.55	31876.3
1092.18	31434.6
1093.82	30810.1
1095.46	30151.1
1097.1	29491.3
1098.73	28962
1100.37	28419.9
1102	27900.5
1103.64	27526.4
1105.27	27230.3
1106.91	27096.3
1108.54	27022.6
1110.18	27137.8
1111.81	27386.8
1113.44	27640.6
1115.08	27986.1
1116.71	28412.4
1118.34	28755.1
1119.98	29064.2
1121.61	29365
1123.24	29335.8
1124.87	29299.5
1126.5	28968.4
1128.13	28424.7
1129.76	27738.2
1131.39	27118.2
1133.02	26658.2
1134.65	26235.2
1136.28	26007.6
1137.91	26029.2
1139.54	26179.9
1141.17	26346.4
1142.8	26778.4
1144.42	27274.7
1146.05	27798.7
1147.68	28333.4
1149.3	29307.1
1150.93	30448.1
1152.56	31791.6
1154.18	33131
1155.81	34294.7
1157.43	34746.9
1159.06	34020.9
1160.68	32379.8
1162.31	30488.8
1163.93	28750.8
1165.55	27437.4
1167.18	26529.5
1168.8	26100.4
1170.42	25830.2
1172.04	25647.7
1173.67	25468.3
1175.29	25379
1176.91	25164
1178.53	24929.7
1180.15	24766.3
1181.77	24711.2
1183.39	24855.3
1185.01	24991.8
1186.63	25113.1
1188.25	25166.8
1189.87	25266.6
1191.49	25235.9
1193.11	25259
1194.72	25144.5
1196.34	25011
1197.96	24862
1199.58	24598
1201.19	24412.8
1202.81	24177.7
1204.43	23966
1206.04	24000.9
1207.66	23951.6
1209.27	23957.5
1210.88	23961.4
1212.5	23987.5
1214.11	23920.3
1215.73	23833.2
1217.34	23639.3
1218.95	23557
1220.57	23508.7
1222.18	23438.8
1223.79	23404.7
1225.4	23425.7
1227.02	23427.8
1228.63	23561.4
1230.24	23584.6
1231.85	23669.3
1233.46	23770.7
1235.07	23944.7
1236.68	24055.8
1238.29	24133.1
1239.9	24285.3
1241.51	24580.8
1243.12	24845.8
1244.72	25050.7
1246.33	25198.7
1247.94	25463.7
1249.55	25651.9
1251.15	25907.2
1252.76	26126.7
1254.37	26388
1255.97	26674.9
1257.58	26890.4
1259.19	27128.1
1260.79	27327.8
1262.39	27517.2
1264	27720.7
1265.6	27842.5
1267.21	28063.1
1268.81	28102.7
1270.41	28052.8
1272.02	27967
1273.62	27799.1
1275.22	27641.3
1276.82	27576.2
1278.43	27610.9
1280.03	27735.3
1281.63	27910
1283.23	28040.7
1284.83	28266.6
1286.43	28531.7
1288.03	28940.8
1289.63	29533.2
1291.23	30414.2
1292.83	31540.1
1294.43	32802.9
1296.03	34395.5
1297.62	35827.4
1299.22	36895.8
1300.82	37635.3
1302.42	37787.8
1304.01	37416.4
1305.61	36814.1
1307.21	35701.3
1308.8	34758.1
1310.4	33705.5
1311.99	32575.3
1313.59	31451
1315.18	30454.2
1316.78	29651.8
1318.37	28857.1
1319.96	28078.2
1321.56	27400.2
1323.15	26886.9
1324.74	26279.9
1326.34	25774.6
1327.93	25301.8
1329.52	24863.5
1331.11	24395.8
1332.7	24130.8
1334.3	23829.1
1335.89	23629.7
1337.48	23551.9
1339.07	23490
1340.66	23407
1342.25	23348.4
1343.84	23350.4
1345.42	23270.1
1347.01	23243.1
1348.6	23097.3
1350.19	23064
1351.78	22992.9
1353.37	22935.6
1354.95	22848.1
1356.54	22656.1
1358.13	22584.8
1359.71	22590.4
1361.3	22596.6
1362.88	22706.4
1364.47	22739.6
1366.05	22756
1367.64	22786.8
1369.22	22807.3
1370.81	22687.2
1372.39	22517
1373.97	22188.3
1375.56	21893.9
1377.14	21633.2
1378.72	21464
1380.31	21382
1381.89	21178.3
1383.47	20967.3
1385.05	21016.7
1386.63	21013.4
1388.21	20952.9
1389.79	20963.4
1391.37	20943.1
1392.95	20991.4
1394.53	20991.9
1396.11	21000.5
1397.69	21125
1399.27	21113.9
1400.85	21183.5
1402.42	21389.3
1404	21438
1405.58	21489.5
1407.16	21563.6
1408.73	21758.7
1410.31	21992.8
1411.89	22336.5
1413.46	22847
1415.04	23393.7
1416.61	23889.4
1418.19	24405.7
1419.76	24853.1
1421.34	25172.2
1422.91	25675.2
1424.49	26453.2
1426.06	27490.7
1427.63	28891.7
1429.21	30947.8
1430.78	33692.8
1432.35	36526.6
1433.92	39661.5
1435.49	42312.6
1437.07	44434.3
1438.64	45521.7
1440.21	45878
1441.78	45315.1
1443.35	44396.7
1444.92	43426
1446.49	42429.1
1448.06	41524
1449.63	40918.5
1451.2	40193.3
1452.76	39591.7
1454.33	39030.3
1455.9	38477.6
1457.47	37810.3
1459.03	37006.2
1460.6	35797.5
1462.17	34590.2
1463.74	33314.8
1465.3	32023.5
1466.87	30648.9
1468.43	29508.1
1470	28447.6
1471.56	27225.8
1473.13	26129.5
1474.69	25150.5
1476.26	24325.4
1477.82	23656.4
1479.38	23061
1480.94	22645.4
1482.51	22276.3
1484.07	21974.8
1485.63	21683.8
1487.2	21475.8
1488.76	21384.9
1490.32	21209.3
1491.88	21181.9
1493.44	21131.4
1495	21154.6
1496.56	21130.2
1498.12	21156.3
1499.68	21204.9
1501.24	21348.7
1502.8	21519
1504.36	21803.2
1505.91	22155
1507.47	22516.2
1509.03	23086
1510.59	23808.5
1512.14	24542.4
1513.7	25288.6
1515.26	26248.1
1516.81	27127.8
1518.37	27898.2
1519.93	28415.3
1521.48	28725.5
1523.04	28853.5
1524.59	28549
1526.15	28053.1
1527.7	27110.3
1529.25	25959.2
1530.81	24684.8
1532.36	23341.9
1533.91	22298.5
1535.47	21361.4
1537.02	20632.5
1538.57	20137.8
1540.12	19651.6
1541.67	19336.5
1543.23	19069.3
1544.78	18885.3
1546.33	18743.1
1547.88	18504.2
1549.43	18428.3
1550.98	18259
1552.53	18213.3
1554.08	18137.9
1555.63	18159
1557.18	18054.1
1558.72	18008.4
1560.27	17918.2
1561.82	17906.1
1563.37	17852.2
1564.91	17856
1566.46	17864.8
1568.01	17788.1
1569.55	17803.3
1571.1	17849.4
1572.64	17781.2
1574.19	17839.9
1575.74	17768.6
1577.28	17774.6
1578.83	17780.5
1580.37	17755.2
1581.91	17765.8
1583.46	17813
1585	17782.1
1586.54	17851
1588.09	17751.2
1589.63	17776.1
1591.17	17783.5
1592.71	17821.5
1594.25	17799.5
1595.79	17841.7
1597.34	17772.5
1598.88	17729.1
1600.42	17744
1601.96	17770
1603.5	17795.9
1605.04	17734
1606.58	17783.2
1608.12	17733.6
1609.65	17737.4
1611.19	17779.9
1612.73	17650.2
1614.27	17643.3
1615.8	17599.7
1617.34	17585.8
1618.88	17606.7
1620.42	17597.5
1621.95	17640.6
1623.49	17654.5
1625.03	17730.3
1626.56	17872.2
1628.1	17845
1629.63	18025.5
1631.17	18127.9
1632.7	18315.6
1634.23	18465.1
1635.77	18617.2
1637.3	18862.1
1638.83	19228.7
1640.37	19585.2
1641.9	19858
1643.43	20369.2
1644.96	21104
1646.5	22261
1648.03	23459.3
1649.56	25118.4
1651.09	26662.9
1652.62	27935.3
1654.15	28480.5
1655.68	28128
1657.21	27159.6
1658.74	25671.2
1660.27	24286.8
1661.8	23010
1663.32	21908
1664.85	21103
1666.38	20596.9
1667.91	20290
1669.44	20079.2
1670.96	19567
1672.49	19071.3
1674.02	18588.3
1675.54	18089.1
1677.07	17699.2
1678.59	17382.1
1680.12	17161.8
1681.65	17005.7
1683.17	16859.7
1684.69	16710.1
1686.22	16688
1687.74	16577.1
1689.27	16449.4
1690.79	16432.5
1692.31	16341.3
1693.84	16389.3
1695.36	16296
1696.88	16127
1698.4	16119.7
1699.92	16072.9
1701.45	16032.3
1702.97	15986.7
1704.49	15929.3
1706.01	15951.5
1707.53	15938.4
1709.05	15934.6
1710.57	15921.5
1712.09	15897.3
1713.61	15855.3
1715.13	15846.9
1716.65	15798.3
1718.16	15883.9
1719.68	15870.3
1721.2	16006
1722.72	16081.8
1724.23	16127.1
1725.75	16274.2
1727.27	16431.1
1728.78	16638
1730.3	16930.4
1731.82	17284.9
1733.33	17713.6
1734.84	18119.4
1736.36	18577.1
1737.87	19072.1
1739.39	19437.7
1740.9	19842.4
1742.42	20235.8
1743.93	20451.7
1745.44	20622.4
1746.96	20700.8
1748.47	20677.4
1749.98	20382.4
1751.49	20109.9
1753	19693.9
1754.51	19136.7
1756.03	18467.3
1757.54	17956.3
1759.05	17411.5
1760.56	16843.6
1762.07	16434.1
1763.58	16047.9
1765.09	15711.8
1766.6	15591.6
1768.11	15405.9
1769.61	15279.6
1771.12	15169.1
1772.63	15122.9
1774.14	15087.3
1775.65	15020.1
1777.15	14919.3
1778.66	14926.3
1780.17	14919.7
1781.67	14863.4
1783.18	14807.6
1784.68	14802.7
1786.19	14855.4
1787.7	14843.3
1789.2	14792.8
1790.71	14727.8
1792.21	14722.1
1793.71	14640.6
1795.22	14663.5
1796.72	14646.7
1798.22	14618.3
1799.73	14557.9
1801.23	14508
1802.73	14501.4
1804.23	14535.3
1805.74	14493.4
1807.24	14507.7
1808.74	14488
1810.24	14490
1811.74	14447
1813.24	14438
1814.74	14400.8
1816.24	14445.2
1817.74	14357.9
1819.24	14322.7
1820.74	14323.4
1822.24	14348.4
1823.74	14271.4
1825.23	14313.4
1826.73	14274.7
1828.23	14356.5
1829.73	14324.4
1831.22	14247.2
1832.72	14221.1
1834.22	14225.9
1835.71	14156.3
1837.21	14234.2
1838.71	14205.8
1840.2	14216.2
1841.7	14178.7
1843.19	14181.8
1844.68	14157.9
1846.18	14152.5
1847.67	14158.9
1849.17	14127
1850.66	14095.6
1852.15	14116.3
1853.65	14042.8
1855.14	14070.9
1856.63	14088.7
1858.12	14042.7
1859.62	13990.2
1861.11	14022.9
1862.6	13987.9
1864.09	13965
1865.58	14012.7
1867.07	13936.9
1868.56	13981.6
1870.05	13974
1871.54	13965.8
1873.03	13935.4
1874.52	13996.2
1876.01	13962
1877.49	13857.8
1878.98	13899.9
1880.47	13871.4
1881.96	13780.9
1883.45	13875.9
1884.93	13750.4
1886.42	13731.3
1887.91	13735.9
1889.39	13800.3
1890.88	13780.3
1892.36	13731.3
1893.85	13729.6
1895.34	13663.3
1896.82	13680.8
1898.3	13669.3
1899.79	13639.2
1901.27	13657.9
1902.76	13544.5
1904.24	13508.1
1905.72	13508.1
1907.2	13462.5
1908.69	13379.2
1910.17	13358.8
1911.65	13403
1913.13	13322.5
1914.62	13316.5
1916.1	13272.1
1917.58	13231.2
1919.06	13150.3
1920.54	13157.4
1922.02	13123.2
1923.5	13079.7
1924.98	13076.3
1926.46	13070.8
1927.94	13038.3
1929.42	12985.6
1930.89	12963.9
1932.37	12972
1933.85	12933.3
1935.33	12936.6
1936.81	12855
1938.28	12825.2
1939.76	12829.7
1941.24	12759.8
1942.71	12737.7
1944.19	12715.9
1945.66	12711.7
1947.14	12701.4
1948.61	12648
1950.09	12600.1
1951.57	12572.1
1953.04	12555.6
1954.51	12509.2
1955.99	12453.1
1957.46	12445.2
1958.93	12415.4
1960.41	12396.4
1961.88	12382.6
1963.35	12341.2
1964.82	12307.5
1966.3	12306
1967.77	12254.4
1969.24	12232.3
1970.71	12230.5
1972.18	12236.7
1973.65	12170.7
1975.12	12173.1
1976.59	12136.5
1978.06	12108.9
1979.53	12083.2
1981	12062.2
1982.47	12061.7
1983.94	12030.1
1985.41	12002.7
1986.87	12000.5
1988.34	11946.7
1989.81	11920.6
1991.28	11903.7
1992.74	11879
1994.21	11831.3
1995.68	11800.2
1997.14	11781.9
1998.61	11761.2
2000.07	11756.4
2001.54	11749.8
2003.01	11703.1
2004.47	11675.5
2005.94	11671.4
2007.4	11649.4
2008.86	11625.3
2010.33	11627.2
2011.79	11621.3
2013.25	11594.7
2014.72	11584.8
2016.18	11540.1
2017.64	11542.6
2019.1	11520.1
2020.57	11459.3
2022.03	11456.1
2023.49	11434.1
2024.95	11401.9
2026.41	11410.2
2027.87	11402.8
2029.33	11398.7
2030.79	11410.2
2032.25	11354.2
2033.71	11352.9
2035.17	11316.3
2036.63	11311.5
2038.09	11313.6
2039.54	11291.8
2041	11276.2
2042.46	11256.2
2043.92	11195.3
2045.38	11203.6
2045.86	11217.6
2047.32	11191.7
2048.79	11210.3
2050.25	11166.1
2051.71	11183.4
2053.17	11157.8
2054.64	11146.9
2056.1	11168.5
2057.56	11144.5
2059.02	11115.4
2060.48	11120.8
2061.94	11136.8
2063.4	11123.1
2064.86	11138.3
2066.32	11061.1
2067.78	11093.7
2069.24	11054
2070.7	11067.7
2072.16	11073.3
2073.62	11056.6
2075.08	11034.5
2076.54	11050.5
2077.99	11015.8
2079.45	11002
2080.91	10975.7
2082.37	11062.6
2083.82	11001.2
2085.28	10964.2
2086.74	10986.8
2088.19	10954.7
2089.65	10925.7
2091.1	10925.3
2092.56	10928.9
2094.01	10869.4
2095.47	10919.5
2096.92	10893.9
2098.38	10964.4
2099.83	10895
2101.29	10849.3
2102.74	10836.6
2104.19	10845.8
2105.64	10823.7
2107.1	10803.7
2108.55	10825.6
2110	10819.2
2111.45	10768.7
2112.91	10783.4
2114.36	10749.8
2115.81	10729.9
2117.26	10733.9
2118.71	10755.7
2120.16	10742.1
2121.61	10760.9
2123.06	10735.5
2124.51	10704.4
2125.96	10734.9
2127.4	10695
2128.85	10699.7
2130.3	10672.8
2131.75	10689.8
2133.2	10657.3
2134.65	10635.9
2136.09	10653.8
2137.54	10637
2138.99	10669.5
2140.43	10645.5
2141.88	10622.2
2143.32	10597.6
2144.77	10612.9
2146.22	10597.4
2147.66	10630.3
2149.11	10590.5
2150.55	10533.1
2152	10536.8
2153.44	10541.8
2154.88	10540.3
2156.33	10536.6
2157.77	10553.2
2159.21	10548.1
2160.66	10538.5
2162.1	10534.1
2163.54	10523.7
2164.98	10501.7
2166.43	10507.6
2167.87	10516.9
2169.31	10532.5
2170.75	10507.9
2172.19	10458.1
2173.63	10495.4
2175.07	10465.7
2176.51	10468.1
2177.95	10423.1
2179.39	10484.5
2180.83	10413.1
2182.27	10461.6
2183.71	10421.7
2185.14	10409.2
2186.58	10407.5
2188.02	10359.3
2189.46	10358.9
2190.9	10399.3
2192.33	10357.9
2193.77	10397.1
2195.21	10343.2
2196.64	10297.8
2198.08	10332.7
2199.51	10286.2
2200.95	10271.7
2202.39	10247.8
2203.82	10215.5
2205.25	10263.7
2206.69	10266.6
2208.12	10223.4
2209.56	10258.9
2210.99	10149.7
2212.42	10204.1
2213.86	10170.6
2215.29	10167.8
2216.72	10095.7
2218.15	10114.5
2219.59	10059.1
2221.02	10060
2222.45	10071.8
2223.88	10071.9
2225.31	10014.5
2226.74	10052.4
2228.17	10060.5
2229.6	10006.2
2231.03	10006.8
2232.46	10012.2
2233.89	10027.3
2235.32	9948.19
2236.75	9932.19
2238.18	9952.49
2239.61	9927.09
2241.04	9913.25
2242.46	9937.02
2243.89	9898.98
2245.32	9910.35
2246.75	9853.64
2248.17	9847.18
2249.6	9788.79
2251.03	9821.72
2252.45	9802.21
2253.88	9829.24
2255.31	9811.96
2256.73	9770.79
2258.16	9774.5
2259.58	9704.66
2261	9703.31
2262.43	9707.13
2263.85	9659.61
2265.28	9660.39
2266.7	9648.79
2268.12	9642.86
2269.55	9642.44
2270.97	9606.91
2272.39	9614.36
2273.81	9573.11
2275.24	9575.78
2276.66	9602.67
2278.08	9545.44
2279.5	9537.48
2280.92	9500.76
2282.34	9529.53
2283.76	9523.8
2285.18	9470.66
2286.6	9442.24
2288.02	9419.82
2289.44	9479.01
2290.86	9458.75
2292.28	9399.67
2293.7	9378.26
2295.12	9395.57
2296.54	9399.33
2297.95	9389.88
2299.37	9341.11
2300.79	9354.39
2302.21	9383.91
2303.62	9306.98
2305.04	9330.03
2306.46	9306.21
2307.87	9311.41
2309.29	9294.64
2310.7	9308.2
2312.12	9283.62
2313.53	9266.67
2314.95	9202.61
2316.36	9260.81
2317.78	9195.19
2319.19	9147.22
2320.61	9174.6
2322.02	9127.54
2323.43	9204.67
2324.85	9160.88
2326.26	9256.59
2327.67	9310.65
2329.08	9393.81
2330.5	9402.99
2331.91	9261.89
2333.32	9119.91
2334.73	9082.59
2336.14	9034.31
2337.55	9020.73
2338.96	9007.27
2340.37	9021.25
2341.78	9049.02
2343.19	8978.56
2344.6	8939.81
2346.01	8979.94
2347.42	8936.35
2348.83	8930.33
2350.24	8911.61
2351.65	8907.07
2353.05	8881.85
2354.46	8889.61
2355.87	8857.65
2357.28	8860.08
2358.68	8828.36
2360.09	8789.07
2361.5	8775.71
2362.9	8760.27
2364.31	8757.12
2365.71	8743.12
2367.12	8766.5
2368.52	8762.62
2369.93	8723.12
2371.33	8729.97
2372.74	8718.02
2374.14	8715.03
2375.55	8665.12
2376.95	8699.36
2378.35	8626.12
2379.76	8644.17
2381.16	8647.81
2382.56	8630.82
2383.96	8628.51
2385.37	8616.6
2386.77	8587.63
2388.17	8603.66
2389.57	8554.67
2390.97	8554.04
2392.37	8558.86
2393.77	8499.46
2395.17	8581.39
2396.57	8538.76
2397.97	8525.81
2399.37	8469.56
2400.77	8540.65
2402.17	8491.94
2403.57	8479.72
2404.97	8474.53
2406.37	8462.7
2407.77	8482.76
2409.16	8472.34
2410.56	8480.45
2411.96	8430.04
2413.36	8433.44
2414.75	8408.52
2416.15	8424.81
2417.55	8402.3
2418.94	8401.67
2420.34	8365.62
2421.73	8350.55
2423.13	8412.28
2424.52	8337.76
2425.92	8366.8
2427.31	8351.54
2428.71	8332.51
2430.1	8308.69
2431.5	8342.3
2432.89	8324.7
2434.28	8286.36
2435.68	8278.18
2437.07	8277.75
2438.46	8247.21
2439.85	8270.69
2441.25	8221.05
2442.64	8228.11
2444.03	8225.54
2445.42	8228.67
2446.81	8218.81
2448.2	8213.72
2449.59	8196.03
2450.98	8196.55
2452.37	8180.33
2453.76	8135.14
2455.15	8158.97
2456.54	8188.94
2457.93	8133.47
2459.32	8117.6
2460.71	8116.27
2462.1	8092.54
2463.49	8123.37
2464.87	8049.14
2466.26	8099.35
2467.65	8100.67
2469.04	8023.67
2470.42	8021.32
2471.81	8085.83
2473.2	8036.32
2474.58	8025.79
2475.97	8015.1
2477.35	7998.42
2478.74	8031.05
2480.12	7977.2
2481.51	7996.54
2482.89	7967.63
2484.28	7949.94
2485.66	7990.17
2487.05	7904.68
2488.43	7969.3
2489.81	7961.79
2491.2	7937.31
2492.58	7928.1
2493.96	7918.61
2495.34	7937.89
2496.73	7858.72
2498.11	7902.02
2499.49	7856.29
2500.87	7828.76
2502.25	7870.69
2503.63	7839.74
2505.01	7828.17
2506.39	7789.03
2507.77	7790.13
2509.15	7842.16
2510.53	7792.98
2511.91	7806.36
2513.29	7797.97
2514.67	7778.64
2516.05	7784.91
2517.43	7769.2
2518.81	7781.2
2520.19	7750.18
2521.56	7767.71
2522.94	7758.81
2524.32	7752.07
2525.7	7738.19
2527.07	7755.28
2528.45	7713.64
2529.82	7685.2
2531.2	7731.52
2532.58	7717.95
2533.95	7730.37
2535.33	7696.68
2536.7	7705.71
2538.08	7702.34
2539.45	7669.85
2540.82	7647.84
2542.2	7636.73
2543.57	7641.25
2544.95	7640.3
2546.32	7610.55
2547.69	7608.49
2549.07	7559.54
2550.44	7595.3
2551.81	7566.67
2553.18	7586.75
2554.55	7574.38
2555.93	7576.22
2557.3	7550.27
2558.67	7537.04
2560.04	7551.78
2561.41	7529.84
2562.78	7564.98
2564.15	7534.9
2565.52	7555.05
2566.89	7493.07
2568.26	7533.03
2569.63	7491.37
2571	7508.42
2572.36	7519.31
2573.73	7489.78
2575.1	7502.23
2576.47	7551.71
2577.84	7525.44
2579.2	7490.07
2580.57	7514.73
2581.94	7470.53
2583.31	7489.88
2584.67	7519.74
2586.04	7476.7
2587.4	7491.63
2588.77	7521.97
2590.14	7512.47
2591.5	7510.22
2592.87	7555.33
2594.23	7551.38
2595.6	7540.75
2596.96	7518.37
2598.32	7540.62
2599.69	7469
2601.05	7495.09
2602.41	7499.99
2603.78	7490.6
2605.14	7512.8
2606.5	7462.95
2607.86	7499.78
2609.23	7463.54
2610.59	7446.27
2611.95	7443.18
2613.31	7472.85
2614.67	7405.8
2616.03	7435.55
2617.4	7450.09
2618.75	7442.54
2620.11	7451.13
2621.48	7416.44
2622.83	7391.34
2624.19	7396.29
2625.55	7426.24
2626.91	7400.21
2628.27	7411.78
2629.63	7366.86
2630.99	7421.5
2632.35	7440.68
2633.7	7397.32
2635.06	7442.91
2636.42	7427.64
2637.77	7383.72
2639.13	7421.96
2640.49	7378.4
2641.84	7355.14
2643.2	7397.47
2644.56	7389.76
2645.91	7406.53
2647.27	7450.68
2648.62	7428.08
2649.98	7435.35
2651.33	7473.67
2652.69	7415.77
2654.04	7435.3
2655.4	7410.24
2656.75	7447.1
2658.1	7433.57
2659.45	7485.64
2660.81	7468.24
2662.16	7452.95
2663.51	7467.94
2664.86	7495.14
2666.22	7514.66
2667.57	7519
2668.92	7513.56
2670.27	7499.24
2671.62	7530.74
2672.97	7562.23
2674.32	7509.75
2675.67	7522.8
2677.02	7486.82
2678.37	7520.58
2679.72	7509.75
2681.07	7460.96
2682.42	7481.14
2683.77	7491.76
2685.12	7465.79
2686.47	7470.17
2687.81	7478.94
2689.16	7519.04
2690.51	7512.02
2691.86	7493.44
2693.21	7503.17
2694.55	7490.31
2695.9	7490.88
2697.25	7470.22
2698.59	7507.16
2699.94	7510.83
2701.28	7534.99
2702.63	7610.19
2703.97	7633.89
2705.32	7693.68
2706.66	7686.86
2708.01	7734.67
2709.35	7761.91
2710.7	7779.94
2712.04	7804.82
2713.39	7879.64
2714.73	7856.74
2716.07	7890.69
2717.41	7968.83
2718.76	7965.66
2720.1	8018.63
2721.44	8011.96
2722.78	8034.45
2724.12	8047.17
2725.47	8055.04
2726.81	8037.47
2728.15	8055.23
2729.49	8079.49
2730.83	8041.94
2732.17	7992.88
2733.51	7907.69
2734.85	7850.48
2736.19	7772.74
2737.53	7704.49
2738.87	7623.54
2740.21	7573.58
2741.55	7481.67
2742.88	7420.5
2744.22	7395.73
2745.56	7312.83
2746.9	7286.49
2748.24	7223.61
2749.57	7174.96
2750.91	7139.93
2752.25	7073.26
2753.58	7052.69
2754.92	7036.75
2756.25	6981.64
2757.59	6961.96
2758.93	6937.59
2760.26	6909.28
2761.6	6913.23
2762.93	6941.15
2764.27	6892.07
2765.6	6854.56
2766.93	6880.59
2768.27	6884.57
2769.6	6858.12
2770.94	6821.18
2772.27	6825.45
2773.6	6815.69
2774.93	6820.14
2776.27	6776.21
2777.6	6849.29
2778.93	6811.02
2780.26	6787.46
2781.59	6789.98
2782.93	6763.42
2784.26	6774.03
2785.59	6784.31
2786.92	6790.21
2788.25	6782.67
2789.58	6775.12
2790.91	6776.27
2792.24	6807.57
2793.57	6857.98
2794.9	6844.89
2796.23	6860.79
2797.56	6880.79
2798.88	6837.8
2800.21	6899.21
2801.54	6913.21
2802.87	6889.24
2804.2	6906.28
2805.52	6896.95
2806.85	6978.84
2808.18	6974.9
2809.5	6986.6
2810.83	7006.44
2812.16	7068.35
2813.48	7108.52
2814.81	7135.8
2816.13	7191.86
2817.46	7281.37
2818.78	7297.31
2820.11	7403.79
2821.43	7461.5
2822.76	7561.81
2824.08	7665.85
2825.4	7756.97
2826.73	7874.16
2828.05	8044.01
2829.37	8253.08
2830.7	8462.45
2832.02	8698.53
2833.34	9003.52
2834.66	9370
2835.99	9844.18
2837.31	10341.3
2838.63	11031.5
2839.95	11905.9
2841.27	13087.9
2842.59	14577.2
2843.91	16294.7
2845.23	18522.7
2846.55	20811.6
2847.87	23037.5
2849.19	24968.8
2850.51	26185.5
2851.83	26864.9
2853.15	26830.2
2854.47	26400.1
2855.79	25763.9
2857.11	25060.5
2858.43	24334.1
2859.74	23717.6
2861.06	23167.4
2862.38	22670.7
2863.69	22157.4
2865.01	21772.5
2866.33	21506.1
2867.65	21389.4
2868.96	21493.4
2870.28	21785.8
2871.59	22030.6
2872.91	22457.9
2874.22	22761.2
2875.54	22898.4
2876.85	22961.8
2878.17	23044.7
2879.48	23172.5
2880.8	23385.9
2882.11	23633
2883.42	23942.3
2884.74	24261.5
2886.05	24580.1
2887.36	24777
2888.68	25018.8
2889.99	25159.1
2891.3	25280.7
2892.61	25343.8
2893.93	25327.6
2895.24	25364.2
2896.55	25376.2
2897.86	25389.3
2899.17	25287.8
2900.48	25276.1
2901.79	25194.2
2903.1	25114.6
2904.41	25114.8
2905.72	25016.9
2907.03	24877.1
2908.34	24720.1
2909.65	24652.1
2910.96	24573.1
2912.27	24473
2913.57	24474.5
2914.88	24363.1
2916.19	24235
2917.5	24137.9
2918.81	24077.3
2920.11	24075.2
2921.42	24132.2
2922.73	24134.9
2924.03	24172.9
2925.34	24243.5
2926.64	24381.3
2927.95	24312.2
2929.26	24311.3
2930.56	24219.4
2931.87	24163
2933.17	24144.9
2934.48	24092.1
2935.78	23698.1
2937.09	23313.1
2938.39	22901.7
2939.69	22286.9
2941	21510.7
2942.3	20676.9
2943.6	19707
2944.91	18774.2
2946.21	17945.9
2947.51	17164.9
2948.81	16564.7
2950.12	15984.7
2951.42	15695.8
2952.72	15338.6
2954.02	15076
2955.32	14872.7
2956.62	14729.8
2957.92	14587.5
2959.22	14413.2
2960.52	14209.7
2961.82	14034
2963.12	13751
2964.42	13428.8
2965.72	13191.8
2967.02	12859.8
2968.32	12552.6
2969.62	12271.4
2970.92	11863.1
2972.21	11507.6
2973.51	11168.3
2974.81	10910.9
2976.11	10652
2977.4	10451.5
2978.7	10181.7
2980	9936.27
2981.29	9789.41
2982.59	9557.29
2983.89	9352.8
2985.18	9219.01
2986.48	9049.08
2987.77	8926.75
2989.07	8772.52
2990.36	8712.55
2991.66	8572.03
2992.95	8547.55
2994.25	8440.15
2995.54	8384.42
2996.84	8361.82
2998.13	8370.85
2999.42	8366.54
3000.72	8379.06
3002.01	8335.3
3003.3	8298.12
3004.59	8363.16
3005.89	8330.23
3007.18	8242.04
3008.47	8214.38
3009.76	8130.87
3011.05	7976.43
3012.34	7901.83
3013.63	7784.45
3014.93	7674.99
3016.22	7523.7
3017.5	7373.21
3018.8	7287.2
3020.09	7146.36
3021.38	7053.58
3022.67	6955.53
3023.95	6879.06
3025.24	6820.14
3026.53	6722.05
3027.82	6643.98
3029.11	6591.97
3030.4	6548.98
3031.68	6534.29
3032.97	6473.52
3034.26	6480.81
3035.54	6404.03
3036.83	6408.73
3038.12	6378.48
3039.4	6395.22
3040.69	6378.07
3041.98	6355.09
3043.26	6355.57
3044.55	6344.29
3045.83	6343.71
3047.12	6324.36
3048.4	6340.88
3049.69	6353.39
3050.97	6327.91
3052.26	6309.25
3053.54	6355.59
3054.82	6334.77
3056.11	6338.6
3057.39	6357.07
3058.67	6362.62
3059.96	6352.8
3061.24	6378.37
3062.52	6378.08
3063.8	6380.29
3065.09	6393.96
3066.37	6378.54
3067.65	6369.63
3068.93	6379.99
3070.21	6362.39
3071.49	6366.06
3072.77	6371.52
3074.05	6356.4
3075.33	6352.8
3076.61	6313.32
3077.89	6283.94
3079.17	6300.01
3080.45	6282.51
3081.73	6291.21
3083.01	6271.36
3084.29	6315.55
3085.57	6253.3
3086.84	6230.61
3088.12	6264.92
3089.4	6299.22
3090.68	6332.72
3091.95	6312.79
3093.23	6293.27
3094.51	6285.11
3095.79	6312.1
3097.06	6285.67
3098.34	6334.14
3099.61	6347.67
3100.89	6332.76
3102.17	6317.83
3103.44	6386.46
3104.72	6374
3105.99	6361.59
3107.27	6435.46
3108.54	6432.5
3109.81	6436.81
3111.09	6439.6
3112.36	6474
3113.63	6460
3114.91	6524.12
3116.18	6526.63
3117.46	6536.79
3118.73	6587.24
3120	6603.78
3121.27	6613.43
3122.54	6618.26
3123.82	6635.48
3125.09	6640.54
3126.36	6680.71
3127.63	6722.22
3128.9	6725.4
3130.17	6788.66
3131.44	6798.15
3132.71	6782.23
3133.98	6812.04
3135.25	6809.98
3136.52	6857.99
3137.79	6840.95
3139.06	6904.83
3140.33	6900.43
3141.6	6924.16
3142.86	6921.04
3144.13	6987.4
3145.4	7004.31
3146.67	7018.95
3147.94	7062.24
3149.2	7116.49
3150.47	7105.21
3151.74	7140.69
3153	7116.3
3154.27	7188.28
3155.54	7207.8
3156.8	7228.13
3158.07	7240.38
3159.34	7276.88
3160.6	7276.01
3161.86	7296.32
3163.13	7338.34
3164.4	7327.33
3165.66	7388.66
3166.92	7406.01
3168.19	7432.26
3169.45	7470.55
3170.72	7435.86
3171.98	7442.97
3173.24	7432.13
3174.5	7459.33
3175.77	7441.84
3177.03	7464.03
3178.29	7473.98
3179.56	7444.7
3180.82	7450.2
3182.08	7460.86
3183.34	7475.34
3184.6	7488.63
3185.86	7462.95
3187.12	7455.61
3188.38	7485.03
3189.64	7508.02
3190.9	7496.15
3192.16	7476.81
3193.42	7460.16
3194.68	7449.87
3195.94	7474.36
3197.2	7467.26
3198.46	7454.11
3199.72	7473.38
3200.98	7443.69
3202.24	7443.89
3203.49	7464.58
3204.75	7461.15
3206.01	7463.21
3207.27	7470.17
3208.52	7438.03
3209.78	7429.78
3211.04	7436.32
3212.29	7444.81
3213.55	7415.35
3214.81	7363.96
3216.06	7353.8
3217.32	7358.62
3218.57	7362.73
3219.83	7383.07
3221.08	7359.01
3222.34	7334.27
3223.59	7329.96
3224.85	7345.2
3226.1	7337.22
3227.35	7318.29
3228.61	7297.47
3229.86	7289.38
3231.11	7269.61
3232.37	7269.81
3233.62	7235.31
3234.87	7240.08
3236.12	7227.63
3237.38	7225.54
3238.63	7222.04
3239.88	7199.15
3241.13	7176.54
3242.38	7170.82
3243.63	7151.22
3244.89	7128.45
3246.14	7136.43
3247.39	7132.52
3248.64	7098.21
3249.89	7098.02
3251.14	7097.07
3252.39	7092.47
3253.64	7075.28
3254.88	7027.86
3256.13	7028.05
3257.38	7011.69
3258.63	6984.63
3259.88	6983.86
3261.13	6970.54
3262.37	6932.92
3263.62	6934.58
3264.87	6923.9
3266.12	6903.43
3267.36	6893.63
3268.61	6908.76
3269.86	6907.05
3271.1	6879.63
3272.35	6881.6
3273.6	6876.88
3274.84	6848.06
3276.09	6830.19
3277.33	6813.08
3278.58	6792.81
3279.82	6769.05
3281.07	6756.59
3282.31	6756.85
3283.56	6742.72
3284.8	6723.72
3286.04	6719.71
3287.29	6701.02
3288.53	6681.63
3289.77	6672.31
3291.02	6666.41
3292.26	6665.47
3292.9	6655.83
3294.15	6630.17
3295.39	6615.45
3296.64	6624.14
3297.89	6614.82
3299.14	6596.77
3300.38	6561.64
3301.63	6578.83
3302.88	6559.57
3304.12	6574.66
3305.37	6533.63
3306.62	6548.54
3307.86	6554.25
3309.11	6546.19
3310.35	6546.67
3311.6	6519.39
3312.84	6482.39
3314.09	6459.86
3315.34	6493.9
3316.58	6457.76
3317.82	6459.79
3319.07	6457.5
3320.31	6454.03
3321.56	6442.99
3322.8	6422.33
3324.04	6435.81
3325.29	6457.59
3326.53	6441.78
3327.77	6401.16
3329.01	6393.87
3330.25	6376.01
3331.5	6384.61
3332.74	6394.98
3333.98	6361.78
3335.22	6388.93
3336.46	6358.87
3337.7	6363.32
3338.94	6362.81
3340.19	6346.42
3341.42	6328.93
3342.67	6272.32
3343.9	6293.84
3345.15	6286.96
3346.38	6253.05
3347.62	6275.6
3348.86	6256.9
3350.1	6284.55
3351.34	6258.03
3352.58	6280.37
3353.82	6206.12
3355.06	6236.95
3356.29	6224.02
3357.53	6195.19
3358.77	6227.37
3360	6214.08
3361.24	6203.29
3362.48	6197.56
3363.71	6180.08
3364.95	6211.48
3366.19	6165.5
3367.42	6144.06
3368.66	6169.2
3369.89	6153.01
3371.13	6160.69
3372.36	6144.02
3373.6	6137.4
3374.83	6178.54
3376.07	6129.11
3377.3	6150.78
3378.54	6125.76
3379.77	6108.76
3381	6082.16
3382.24	6099.72
3383.47	6091.7
3384.7	6072.01
3385.94	6064.51
3387.17	6063.35
3388.4	6081.33
3389.63	6051.84
3390.87	6033.38
3392.1	6043.34
3393.33	6053.12
3394.56	6021.42
3395.79	6024.18
3397.02	6016.43
3398.25	6025.85
3399.48	6008.36
3400.71	5966.27
3401.94	5970.24
3403.17	5941.82
3404.4	5966.27
3405.63	5946.1
3406.86	5954.6
3408.09	5902.27
3409.32	5916.56
3410.55	5937.84
3411.78	5895.4
3413	5910.15
3414.23	5880.18
3415.46	5867.1
3416.69	5873.66
3417.92	5826.23
3419.14	5837.18
3420.37	5855.65
3421.6	5823.4
3422.82	5799.65
3424.05	5803.84
3425.27	5761.5
3426.5	5766.76
3427.73	5744.66
3428.95	5759.88
3430.18	5728.7
3431.4	5743.52
3432.63	5709.55
3433.85	5690.38
3435.08	5673.25
3436.3	5657.84
3437.53	5676.46
3438.75	5604.99
3439.97	5612.6
3441.2	5595.13
3442.42	5567.21
3443.64	5539.47
3444.86	5513.11
3446.09	5535.77
3447.31	5488.28
3448.53	5466.51
3449.75	5497.97
3450.98	5446.15
3452.2	5450.03
3453.42	5431.75
3454.64	5408.52
3455.86	5408.41
3457.08	5362.23
3458.3	5380.04
3459.52	5354.34
3460.74	5345.64
3461.96	5329.06
3463.18	5295.38
3464.4	5255.97
3465.62	5275.12
3466.84	5267.81
3468.06	5225.05
3469.28	5183.15
3470.5	5167.34
3471.72	5169.84
3472.93	5143.85
3474.15	5062.56
3475.37	5098.66
3476.59	5044.01
3477.8	5035.61
3479.02	5016.94
3480.24	5018.77
3481.45	5003.59
3482.67	4955.38
3483.89	4933.26
3485.1	4910.45
3486.32	4891.59
3487.53	4882.9
3488.75	4808.18
3489.96	4817.42
3491.18	4793.11
3492.39	4760.58
3493.61	4744.77
3494.82	4696.25
3496.04	4693.82
3497.25	4672.01
3498.47	4634.7
3499.68	4630.87
