#Acq. time (s)=	10
#Accumulations=	10
#Range (cm-¹)=	400...3500
#Windows=	3
#Auto scanning=	Off
#Autofocus=	Off
#AutoExposure=	Off
#Spike filter=	Multiple accum.
#Delay time (s)=	0
#Binning=	1
#Readout mode=	Signal
#DeNoise=	Off
#ICS correction=	On
#Dark correction=	Off
#Inst. Process=	Off
#Detector Gain=	Best Dynamic Range
#Detector ADC=	45 kHz       
#Detector temperature (°C)=	-60.1
#Instrument=	LabRAM HR Evol
#Detector=	Syncerity OE
#Objective=	x50_VIS_LWD
#Grating=	600 (500nm)
#ND Filter=	50%
#Laser=	532nm_Edge
#Hole=	199.981
#Range=	Visible
#E-Cal_Neon=	0
#StageXY=	75x50mm Scan+
#StageZ=	Z motor
#X (µm)=	0
#Y (µm)=	0
#Z (µm)=	251
#Spectral res.(cm-¹)=	12.8
#Full time(mm:ss)=	5:19
#AC=	Calibrated 2025-07-01 10:31
#Project=	
#Sample=	
#Site=	
#Title=	D_1
#Remark=	
#Date=	01.07.2025 11:43 (India Standard Time)
#Acquired=	01.07.2025 11:43:55 (India Standard Time)
#AxisType[0]=Intens
#AxisUnit[0]=Cnt
#AxisType[1]=Spectr
#AxisUnit[1]=1/cm
400.083	29323
401.858	29154.5
403.63	29128.7
405.405	29056.1
407.176	29063.2
408.949	29070.7
410.72	29065.9
412.493	29017
414.263	28978.9
416.033	28982.3
417.805	29140.6
419.574	29000.4
421.345	29098
423.114	29007.2
424.884	28980.8
426.652	29029.9
428.421	29014.9
430.188	29054.6
431.955	28990.9
433.724	29021.9
435.49	28928.7
437.258	28938
439.023	28902.6
440.788	28934.4
442.555	28952.2
444.32	28876.4
446.084	28813
447.85	28830.9
449.613	28866
451.376	28741.9
453.141	28790.5
454.904	28735.7
456.666	28751.1
458.429	28707.4
460.191	28678.1
461.952	28496.1
463.715	28632
465.475	28633
467.235	28518.1
468.995	28558.9
470.756	28509
472.515	28574.8
474.274	28456.9
476.032	28476.1
477.793	28327
479.55	28436.7
481.308	28335.1
483.065	28333.9
484.823	28338.1
486.58	28366.4
488.336	28349.6
490.091	28413.1
491.847	28280.9
493.604	28363
495.358	28321.1
497.113	28310.4
498.867	28350.1
500.62	28286.4
502.374	28411.7
504.127	28316.6
505.881	28428.8
507.634	28452.6
509.386	28408.2
511.137	28501.2
512.888	28444
514.639	28464.9
516.39	28355.9
518.14	28375.4
519.89	28260.6
521.642	28244
523.391	28097
525.14	28199.7
526.889	28220.4
528.637	28103.9
530.385	28090.8
532.133	28054.1
533.88	27931.4
535.627	28012.3
537.373	27907.9
539.12	27892.9
540.866	27769.1
542.611	27813.9
544.357	27772.1
546.101	27747.2
547.846	27643.6
549.59	27658.3
551.334	27662.7
553.078	27614
554.821	27673.8
556.564	27724.6
558.307	27550.2
560.049	27634.4
561.789	27500.2
563.53	27557
565.272	27546.9
567.013	27597.4
568.753	27634.9
570.494	27645.7
572.233	27656.3
573.973	27614.9
575.712	27656.7
577.449	27661.2
579.188	27759.2
580.926	27719.8
582.664	27710.8
584.402	27748.6
586.139	27829.1
587.876	27729.7
589.611	27823.6
591.347	27856.8
593.083	27924.3
594.818	27883.8
596.554	27959.3
598.287	27939.8
600.021	27988
601.756	28034.3
603.49	28087.8
605.221	27958.3
606.955	28111.9
608.688	27965.2
610.42	27856.5
612.15	27767.6
613.882	27611.5
615.614	27688.3
617.345	27614.1
619.074	27522.2
620.805	27485.9
622.535	27431
624.263	27410.7
625.993	27328.3
627.722	27298.5
629.45	27260.2
631.178	27310.3
632.907	27242.6
634.633	27273.6
636.36	27258.8
638.088	27330.3
639.813	27328.8
641.539	27359
643.264	27187.6
644.99	27212.2
646.716	27195.5
648.439	27115.5
650.164	27061.3
651.887	27060.5
653.611	27063.7
655.335	26973.4
657.057	26994.4
658.781	27025.2
660.502	26932.7
662.225	26882.5
663.945	26859.2
665.667	26848.9
667.387	26899.1
669.108	26886.4
670.828	26905.7
672.548	26820.7
674.267	26793.3
675.987	26712.1
677.705	26749.9
679.424	26792.5
681.142	26795.7
682.86	26794.3
684.577	26779.9
686.293	26700.8
688.011	26814.7
689.727	26773.9
691.444	26926.1
693.159	26843.3
694.875	26902
696.59	26947.1
698.304	26943.9
700.019	26934.4
701.733	26940.1
703.448	26918.3
705.16	26887.4
706.872	26900.9
708.586	26880.2
710.298	26881.7
712.01	26899.7
713.723	27047.9
715.433	27042.8
717.144	26984.7
718.856	27076.7
720.565	27146.2
722.275	27157.3
723.984	27122.9
725.695	27144.3
727.403	27102.3
729.111	26999
730.821	27012.5
732.528	27056.1
734.235	26997.8
735.942	26979.8
737.651	26979.1
739.357	26971.3
741.063	26872
742.768	26877.8
744.474	26838.6
746.18	26893.6
747.885	26840.9
749.589	26886.4
751.293	26918
752.997	27002.6
754.702	27086
756.405	26980.2
758.108	27068.5
759.81	27120.4
761.512	26987
763.214	27038.1
764.915	26988.5
766.618	27045.5
768.319	27096.6
770.019	27053.8
771.719	27071.5
773.419	26988.8
775.118	27077.9
776.817	27214.7
778.516	27020.4
780.214	27067.1
781.913	26988.2
783.61	27096.2
785.308	27097.3
787.005	27109.7
788.702	27073.1
790.398	27062.6
792.095	27026.3
793.791	27022.6
795.486	27063.9
797.181	27135
798.876	27259.4
800.571	27305.6
802.265	27376.7
803.959	27390.2
805.653	27438.4
807.346	27376
809.039	27448
810.732	27452.1
812.424	27530.3
814.116	27600.6
815.808	27712.6
817.5	27837.8
819.191	27824.6
820.881	28042
822.572	28083.3
824.26	28195.5
825.95	28327.4
827.639	28465.1
829.329	28527
831.018	28617.9
832.706	28710.3
834.394	28767.7
836.08	28954.7
837.768	28991.1
839.455	29074.2
841.142	29091.8
842.829	29167.5
844.513	29341
846.199	29368.1
847.885	29366.7
849.57	29360.3
851.255	29430.2
852.938	29441.6
854.623	29480.3
856.307	29401.1
857.991	29585.1
859.672	29666.9
861.355	29745.6
863.038	29859.6
864.719	29959.9
866.401	29986.9
868.083	30036.1
869.765	30086.7
871.444	30056.7
873.125	30094.9
874.806	30003.1
876.484	29989.7
878.164	29791.2
879.844	29657.7
881.521	29526
883.2	29603.5
884.877	29658.3
886.555	29764
888.234	29831.2
889.909	29724.4
891.587	29570.3
893.262	29333.7
894.939	29155.3
896.616	28900.7
898.29	28730.6
899.966	28532.9
901.64	28399.8
903.315	28311.4
904.988	28312.4
906.663	28113.2
908.335	28120.1
910.009	28050.5
911.683	28109.2
913.354	28081.2
915.027	28151.5
916.698	28181.4
918.369	28146.7
920.041	28168
921.711	28089.4
923.383	28052.3
925.052	27963.7
926.723	27704.5
928.391	27700.1
930.062	27617.2
931.73	27520.9
933.399	27489.2
935.067	27335
936.734	27327.9
938.403	27350
940.069	27398.4
941.737	27379.9
943.403	27375.9
945.069	27447.4
946.736	27509.5
948.401	27434.8
950.065	27511.7
951.732	27436.6
953.396	27464.6
955.059	27456.8
956.725	27429.7
958.388	27557.6
960.051	27614.6
961.715	27592.1
963.377	27518.6
965.039	27523.2
966.7	27457.4
968.364	27493.2
970.025	27386.2
971.685	27245.6
973.345	27210.3
975.007	27232.8
976.667	27067.7
978.326	27036.8
979.985	27033.4
981.646	27118.3
983.304	27025
984.963	27155.6
986.62	27187.6
988.278	27219.7
989.935	27353.2
991.594	27419.5
993.25	27620.6
994.907	27840
996.563	28108.6
998.218	28504.7
999.874	28974
1001.53	29468.7
1003.19	29536.6
1004.84	29344.4
1006.49	29094.9
1008.15	28756.1
1009.8	28564.8
1011.45	28471.3
1013.11	28161.3
1014.76	28110.5
1016.41	28049.6
1018.06	28047.9
1019.72	28015.5
1021.37	27996.4
1023.02	27861.4
1024.67	27916.7
1026.32	27790.7
1027.97	27760.1
1029.62	27825
1031.27	27833.9
1032.92	27768.8
1034.57	27716.3
1036.22	27722.4
1037.86	27786.3
1039.51	27762.2
1041.16	27842.5
1042.81	27708.4
1044.45	27735.4
1046.1	27689.3
1047.75	27772.8
1049.39	27930.4
1051.04	28033.1
1052.68	28167.7
1054.33	28384.5
1055.97	28860.7
1057.62	29285.6
1059.26	29786.6
1060.91	30189.8
1062.55	30422.7
1064.19	30217.3
1065.83	29811.3
1067.48	29548.6
1069.12	29407.4
1070.76	29493.1
1072.4	29572.8
1074.04	29718.9
1075.68	29935.5
1077.32	30038.4
1078.97	30207.8
1080.61	30056.7
1082.24	30112.5
1083.88	29854.6
1085.52	29633.7
1087.16	29412.4
1088.8	29366.9
1090.44	29056.1
1092.08	28771.9
1093.71	28543.4
1095.35	28293.4
1096.99	28093
1098.62	27768.1
1100.26	27595
1101.9	27390.4
1103.53	27330.5
1105.17	27203.6
1106.8	27236.7
1108.44	27101
1110.07	27224.6
1111.7	27361.7
1113.34	27523.5
1114.97	27747.9
1116.6	27912.3
1118.23	28133.7
1119.87	28318.6
1121.5	28462.7
1123.13	28564.5
1124.76	28678.9
1126.39	28575
1128.03	28268.5
1129.65	27923.5
1131.29	27370.8
1132.91	26922.7
1134.54	26658.3
1136.17	26629.3
1137.8	26674.6
1139.43	26748.3
1141.06	26928.5
1142.69	27146.1
1144.31	27488.1
1145.94	28024.2
1147.57	28576.6
1149.19	29294.8
1150.82	30079.9
1152.45	31132.8
1154.07	31855.4
1155.7	32241.8
1157.32	31834.3
1158.95	30773.7
1160.57	29577.7
1162.2	28424.3
1163.82	27505.5
1165.44	26831.7
1167.07	26536
1168.69	26432.2
1170.31	26358.3
1171.94	26269.1
1173.56	26149.4
1175.18	26015.5
1176.8	25835.3
1178.42	25765.8
1180.04	25790.1
1181.66	25773.5
1183.28	25845.9
1184.9	25924.7
1186.52	25918.8
1188.14	26025.3
1189.76	26069.7
1191.38	25951.1
1192.99	25879.2
1194.61	25870.8
1196.23	25662.7
1197.85	25617.5
1199.46	25444.8
1201.08	25377.9
1202.7	25281.6
1204.31	25184.9
1205.93	25142.2
1207.54	25130.8
1209.16	25144.3
1210.78	25107.3
1212.39	25080.9
1214	25021.4
1215.62	24871.3
1217.23	24812.7
1218.84	24785.2
1220.46	24670.2
1222.07	24657.4
1223.68	24639.3
1225.29	24783
1226.91	24786.2
1228.52	24798
1230.13	24905.5
1231.74	24867.7
1233.35	24896.5
1234.96	25068.8
1236.57	25012.9
1238.18	25191.2
1239.79	25318.5
1241.4	25442.6
1243	25532.9
1244.61	25720.7
1246.22	25763.8
1247.83	25960.4
1249.43	26065.2
1251.04	26090.7
1252.65	26191.9
1254.25	26353.2
1255.86	26496.6
1257.47	26617.8
1259.07	26609.7
1260.68	26695.7
1262.28	26761.7
1263.89	26935.6
1265.49	27003.9
1267.09	27017.3
1268.7	26923.6
1270.3	26903.6
1271.9	26797
1273.51	26630.4
1275.11	26560.4
1276.71	26576.4
1278.31	26586.7
1279.91	26586
1281.52	26692.7
1283.12	26757.4
1284.72	26911.9
1286.32	27046.9
1287.92	27451.1
1289.52	27882.2
1291.12	28515.5
1292.72	29472.5
1294.31	30355
1295.91	31033.5
1297.51	31255.2
1299.11	31343.6
1300.71	31311.7
1302.3	31091.7
1303.9	30707.7
1305.5	30236.4
1307.09	29664.3
1308.69	29116.4
1310.28	28664.2
1311.88	28128.1
1313.47	27615.2
1315.07	27115.6
1316.66	26760
1318.26	26394.4
1319.85	26159.8
1321.44	25831.7
1323.04	25598.1
1324.63	25299.9
1326.22	25133.9
1327.82	24999.8
1329.41	24788.6
1331	24652.1
1332.59	24559.9
1334.18	24443.6
1335.77	24420.6
1337.36	24346.5
1338.95	24287.4
1340.54	24264.9
1342.13	24249.7
1343.72	24195.6
1345.31	24067.2
1346.9	23978.8
1348.49	24054.9
1350.07	24050.2
1351.66	24008.9
1353.25	23928.4
1354.84	23917.7
1356.42	23734.1
1358.01	23689.4
1359.6	23592.9
1361.18	23714.1
1362.77	23743.2
1364.35	23722.7
1365.94	23757
1367.52	23734.1
1369.11	23745.9
1370.69	23541.1
1372.28	23418.5
1373.86	23293.5
1375.44	23080.3
1377.02	22978.4
1378.61	22918.1
1380.19	22857.8
1381.77	22786.8
1383.35	22682.7
1384.93	22647.8
1386.52	22664.6
1388.1	22766.3
1389.68	22688
1391.26	22713
1392.84	22668.6
1394.41	22753.6
1396	22621.2
1397.57	22683.9
1399.15	22750.4
1400.73	22819.3
1402.31	22899.7
1403.89	22900.3
1405.46	22932.6
1407.04	23031
1408.62	23254.1
1410.19	23440.4
1411.77	23684.2
1413.35	23959.3
1414.92	24114.1
1416.5	24365.1
1418.07	24608.5
1419.65	24954.9
1421.22	25058.7
1422.8	25374.1
1424.37	25725.2
1425.94	26367
1427.52	27387
1429.09	28509.7
1430.66	29913.5
1432.23	31612.3
1433.8	33125.6
1435.38	34317.5
1436.95	35092.5
1438.52	35422.5
1440.09	35169.9
1441.66	34727.5
1443.23	34102.9
1444.8	33477.1
1446.37	33074.4
1447.94	32728
1449.51	32447.7
1451.08	32100.5
1452.65	31743.9
1454.22	31457.8
1455.78	31098.8
1457.35	30808.4
1458.92	30286.4
1460.48	29694.8
1462.05	29074.4
1463.62	28357.5
1465.18	27658.6
1466.75	27007.5
1468.31	26371.6
1469.88	25676.6
1471.44	25180.4
1473.01	24639.9
1474.57	24077.9
1476.14	23697.7
1477.7	23387
1479.26	23112.7
1480.83	22902.1
1482.39	22715.8
1483.95	22583.3
1485.51	22528.1
1487.08	22305.1
1488.64	22346.8
1490.2	22234.2
1491.76	22287.8
1493.32	22326.6
1494.88	22383.2
1496.44	22454.4
1498	22503.6
1499.56	22542
1501.12	22634.5
1502.68	22916.3
1504.24	23179.4
1505.8	23404.4
1507.35	23750.5
1508.91	24220.5
1510.47	24677.1
1512.03	25282.6
1513.58	25828.5
1515.14	26425
1516.69	26972.6
1518.25	27345.9
1519.81	27607.5
1521.36	27585
1522.92	27451.2
1524.47	27116.5
1526.03	26533.3
1527.58	25760.3
1529.13	25006.8
1530.69	24046.7
1532.24	23362.4
1533.79	22762
1535.35	22212.6
1536.9	21894.4
1538.45	21571.7
1540	21464.3
1541.55	21211.5
1543.11	21104
1544.66	20990.3
1546.21	20974.2
1547.76	20825.7
1549.31	20733.5
1550.86	20681.7
1552.41	20604.5
1553.96	20575.9
1555.5	20549.1
1557.05	20476.9
1558.6	20408.3
1560.15	20440
1561.7	20435.5
1563.24	20477.5
1564.79	20337.3
1566.34	20409.8
1567.88	20357.9
1569.43	20376
1570.98	20363.8
1572.52	20396.5
1574.07	20331.7
1575.61	20321.2
1577.16	20374
1578.7	20333.7
1580.25	20395.6
1581.79	20332.7
1583.34	20351.8
1584.88	20339.8
1586.42	20412.6
1587.96	20345.4
1589.51	20372.1
1591.05	20375.5
1592.59	20269.5
1594.13	20281.9
1595.67	20343.6
1597.21	20390.3
1598.76	20356.2
1600.3	20361.8
1601.83	20385.3
1603.37	20443.5
1604.92	20419.2
1606.45	20348.4
1607.99	20327.4
1609.53	20384.8
1611.07	20289.4
1612.61	20306.8
1614.15	20292.1
1615.68	20240.3
1617.22	20175.2
1618.76	20153.5
1620.29	20211.4
1621.83	20204.9
1623.37	20268.6
1624.9	20241.3
1626.44	20246.8
1627.97	20404.5
1629.51	20425.8
1631.04	20522.7
1632.58	20531.8
1634.11	20719.4
1635.64	20785
1637.18	20857.2
1638.71	21086.4
1640.24	21277.8
1641.78	21449.2
1643.31	21855.7
1644.84	22306
1646.37	23110.1
1647.9	23856.7
1649.44	24926.4
1650.97	25516.1
1652.5	26017.7
1654.03	25899.8
1655.56	25254.6
1657.09	24420
1658.62	23592.2
1660.14	22854.9
1661.67	22264.8
1663.2	21822.9
1664.73	21595.1
1666.26	21456.9
1667.79	21274.5
1669.31	21143.5
1670.84	20828.9
1672.37	20584.6
1673.89	20276.5
1675.42	20116.3
1676.95	19894.5
1678.47	19786
1680	19598
1681.52	19575.9
1683.05	19421.4
1684.57	19434.8
1686.1	19218.8
1687.62	19255.5
1689.14	19152.1
1690.67	19082.8
1692.19	19028.2
1693.71	19034.5
1695.23	18904.3
1696.76	18886.8
1698.28	18823.1
1699.8	18715.5
1701.32	18690.2
1702.84	18643.1
1704.36	18635.1
1705.88	18608.6
1707.4	18568.4
1708.92	18603.3
1710.44	18540.7
1711.96	18492
1713.48	18490.9
1715	18514.7
1716.52	18466.4
1718.04	18562.8
1719.56	18512.9
1721.07	18523.1
1722.59	18614.7
1724.11	18640.9
1725.63	18861.8
1727.14	18920.6
1728.66	19048.6
1730.17	19132.5
1731.69	19249
1733.2	19487.5
1734.72	19709.3
1736.23	19901.2
1737.75	20298
1739.26	20511.9
1740.78	20603.3
1742.29	20588.5
1743.8	20559.3
1745.32	20552.1
1746.83	20463.2
1748.34	20321
1749.86	20140
1751.37	19994.2
1752.88	19662.9
1754.39	19400.2
1755.9	19114.3
1757.41	18859.2
1758.92	18610.4
1760.43	18401.5
1761.94	18324.4
1763.45	18109.2
1764.96	18021.8
1766.47	17968.4
1767.98	17922.7
1769.49	17841
1771	17798.3
1772.5	17829.6
1774.01	17691.2
1775.52	17778.7
1777.03	17660.4
1778.53	17685.4
1780.04	17695.6
1781.55	17633
1783.05	17625.6
1784.56	17608.5
1786.06	17601.3
1787.57	17606.1
1789.07	17598.9
1790.58	17543.1
1792.08	17538.3
1793.59	17570.8
1795.09	17520.2
1796.59	17444.1
1798.1	17510.2
1799.6	17359.2
1801.1	17407
1802.61	17431.5
1804.11	17369.8
1805.61	17399.9
1807.11	17346.8
1808.61	17359.5
1810.11	17290.5
1811.61	17338.4
1813.11	17325.6
1814.61	17323
1816.11	17308.1
1817.61	17298.3
1819.11	17246.1
1820.61	17247.6
1822.11	17249.2
1823.61	17216.9
1825.11	17213.2
1826.6	17181.2
1828.1	17259.9
1829.6	17175.7
1831.1	17170.7
1832.59	17205.1
1834.09	17208.2
1835.59	17076.2
1837.08	17054.5
1838.58	17067.9
1840.07	17099.5
1841.57	17054.6
1843.06	17123.2
1844.56	17055.3
1846.05	17057.8
1847.54	17056.6
1849.04	17031.1
1850.53	17076.2
1852.02	16939.6
1853.52	16990.1
1855.01	16974
1856.5	16961.4
1857.99	16903.2
1859.49	16898.7
1860.98	16911.8
1862.47	16907.6
1863.96	16910.4
1865.45	16907.8
1866.94	16872
1868.43	16825.2
1869.92	16868.9
1871.41	16917.4
1872.9	16852.2
1874.39	16877.9
1875.88	16772.8
1877.37	16855.8
1878.85	16809.5
1880.34	16834.1
1881.83	16820.7
1883.32	16713
1884.8	16710
1886.29	16724.7
1887.78	16707.7
1889.26	16689.5
1890.75	16672.9
1892.23	16723.2
1893.72	16609.1
1895.21	16618.5
1896.69	16598.9
1898.17	16581
1899.66	16510.8
1901.14	16478.2
1902.63	16457.9
1904.11	16381.9
1905.59	16366.5
1907.08	16287.5
1908.56	16292.8
1910.04	16250.8
1911.52	16194.9
1913	16172.4
1914.49	16146.6
1915.97	16091.2
1917.45	16051.9
1918.93	16027.5
1920.41	16026
1921.89	15928.9
1923.37	15922.5
1924.85	15876.4
1926.33	15904.4
1927.81	15807
1929.29	15749.2
1930.76	15733
1932.24	15726.8
1933.72	15628
1935.2	15679
1936.67	15588.8
1938.15	15534.2
1939.63	15484.1
1941.1	15412.5
1942.58	15471.5
1944.06	15407.7
1945.53	15423.8
1947.01	15325.1
1948.48	15289.6
1949.96	15267.1
1951.43	15235.2
1952.91	15193
1954.38	15084.8
1955.86	15059.3
1957.33	15029.9
1958.8	14990.6
1960.27	14954.5
1961.75	14956.4
1963.22	14918
1964.69	14892.6
1966.16	14856.5
1967.64	14818.8
1969.11	14762.1
1970.58	14727
1972.05	14723.4
1973.52	14658.9
1974.99	14695.9
1976.46	14641.7
1977.93	14593.3
1979.4	14579.1
1980.87	14556.8
1982.34	14516.2
1983.81	14455.8
1985.27	14441
1986.74	14395.3
1988.21	14350.9
1989.68	14326.2
1991.14	14293.3
1992.61	14248.9
1994.08	14218.4
1995.55	14157.9
1997.01	14125.8
1998.48	14116
1999.94	14033.5
2001.41	14018.9
2002.87	14026
2004.34	13959.6
2005.8	13982.7
2007.27	13926.1
2008.73	13909.5
2010.19	13886.3
2011.66	13849.9
2013.12	13832.3
2014.58	13812.7
2016.05	13761.5
2017.51	13712.4
2018.97	13696.8
2020.43	13663.2
2021.89	13629.6
2023.36	13585.5
2024.82	13553.8
2026.28	13541.3
2027.74	13541.4
2029.2	13500.6
2030.66	13454
2032.12	13463.4
2033.58	13453.6
2035.04	13397
2036.49	13343.9
2037.95	13353.5
2039.41	13322.1
2040.87	13322.7
2042.33	13286.8
2043.78	13247.6
2045.24	13233.8
2045.76	13223.7
2047.22	13176.9
2048.69	13225
2050.15	13196.5
2051.61	13176.8
2053.07	13140.8
2054.54	13130.2
2056	13112.1
2057.46	13086.6
2058.92	13133.3
2060.38	13133.6
2061.84	13099.5
2063.3	13097.1
2064.76	13100
2066.22	13056.9
2067.68	13079.1
2069.14	13004.6
2070.6	13029.4
2072.06	13003.1
2073.52	12963.1
2074.98	13023.9
2076.44	12927.8
2077.89	12969.9
2079.35	12952.4
2080.81	12950.5
2082.27	12968.4
2083.72	12922.4
2085.18	12903.5
2086.63	12924
2088.09	12860.7
2089.55	12856.7
2091	12870.1
2092.46	12837.6
2093.91	12821.2
2095.37	12850.9
2096.82	12813
2098.28	12800.8
2099.73	12767.5
2101.18	12755.7
2102.64	12761.4
2104.09	12723.5
2105.54	12740.5
2106.99	12683.5
2108.45	12731
2109.9	12669.4
2111.35	12673.5
2112.8	12709.9
2114.25	12668.7
2115.71	12690.3
2117.16	12648
2118.61	12654
2120.06	12611.3
2121.51	12569.5
2122.96	12639.4
2124.4	12586
2125.85	12585.9
2127.3	12607.7
2128.75	12563
2130.2	12525.8
2131.65	12580.9
2133.09	12523.9
2134.54	12514.4
2135.99	12565.8
2137.44	12478.3
2138.88	12488.1
2140.33	12493.5
2141.78	12508.4
2143.22	12471.1
2144.67	12466.5
2146.11	12458
2147.56	12437.8
2149	12475.5
2150.45	12472.4
2151.89	12399.2
2153.34	12393.4
2154.78	12392.7
2156.22	12402.3
2157.67	12438.1
2159.11	12417.7
2160.55	12346.4
2162	12357.8
2163.44	12358.8
2164.88	12367.2
2166.32	12340.8
2167.76	12334.8
2169.2	12352.9
2170.64	12328.5
2172.09	12347.8
2173.53	12310.4
2174.97	12271.8
2176.41	12265.3
2177.85	12267.1
2179.29	12256.8
2180.72	12237.3
2182.16	12263.6
2183.6	12217.6
2185.04	12248.4
2186.48	12181.2
2187.92	12147
2189.35	12162.9
2190.79	12139.9
2192.23	12124.4
2193.66	12112.9
2195.1	12132.4
2196.54	12099.4
2197.97	12093.3
2199.41	12116.3
2200.84	12070
2202.28	12076.5
2203.71	12112.4
2205.15	12080.9
2206.58	12025.9
2208.02	12051.7
2209.45	11981.1
2210.88	11980.8
2212.32	11933
2213.75	11939.6
2215.18	11896.1
2216.62	11853.3
2218.05	11866.5
2219.48	11853.5
2220.91	11827.1
2222.34	11863.3
2223.78	11831.2
2225.21	11826.9
2226.64	11854.7
2228.07	11808
2229.5	11753.5
2230.93	11785.2
2232.36	11773.2
2233.79	11716.7
2235.22	11722.2
2236.65	11733.1
2238.07	11706.2
2239.5	11713.2
2240.93	11703
2242.36	11661.5
2243.79	11657.3
2245.21	11619.9
2246.64	11618.2
2248.07	11577.5
2249.49	11598.2
2250.92	11559.1
2252.35	11554.1
2253.77	11514.4
2255.2	11505.4
2256.62	11500
2258.05	11500.9
2259.47	11439.5
2260.9	11386.4
2262.32	11379.2
2263.75	11377.6
2265.17	11374.6
2266.59	11342.2
2268.02	11312.5
2269.44	11321.1
2270.86	11282.6
2272.29	11285.7
2273.71	11266.5
2275.13	11271.6
2276.55	11213.4
2277.97	11235.3
2279.39	11221.8
2280.81	11157
2282.24	11218
2283.66	11150.8
2285.08	11161.7
2286.5	11140.1
2287.92	11142.1
2289.34	11061.6
2290.75	11098
2292.17	11068
2293.59	11076.7
2295.01	11057.6
2296.43	11063.5
2297.85	11021.3
2299.26	11046.5
2300.68	11072.9
2302.1	11001.4
2303.51	10933.1
2304.93	10943.2
2306.35	10927.9
2307.76	10928.4
2309.18	10936.3
2310.6	10929.2
2312.01	10960.1
2313.43	10890.6
2314.84	10858
2316.25	10855.1
2317.67	10833.2
2319.08	10773.6
2320.5	10817.5
2321.91	10838.2
2323.32	10806.1
2324.74	10824.2
2326.15	10909.4
2327.56	10939.5
2328.98	11010.1
2330.39	10962.2
2331.8	10762.5
2333.21	10653.5
2334.62	10658.2
2336.03	10620.7
2337.44	10619.1
2338.85	10590.8
2340.26	10600.1
2341.67	10634.5
2343.08	10581.7
2344.49	10530.8
2345.9	10496
2347.31	10518.7
2348.72	10510.8
2350.13	10513.5
2351.54	10455.8
2352.94	10430.6
2354.35	10403.9
2355.76	10432.3
2357.17	10371.6
2358.57	10388.5
2359.98	10388.8
2361.39	10297.9
2362.79	10378
2364.2	10337.6
2365.6	10337.7
2367.01	10350.6
2368.41	10310.2
2369.82	10260.1
2371.22	10290
2372.63	10261
2374.03	10206.5
2375.44	10222
2376.84	10221.5
2378.24	10185.1
2379.65	10270
2381.05	10180
2382.45	10147.8
2383.85	10167.5
2385.26	10100.4
2386.66	10164.3
2388.06	10113.4
2389.46	10142
2390.86	10123.2
2392.26	10122
2393.66	10061.2
2395.06	10099.1
2396.46	10038.5
2397.86	10055.3
2399.26	10020.3
2400.66	10080.7
2402.06	10048.9
2403.46	9996.58
2404.86	10031.2
2406.26	9963.55
2407.66	9976.3
2409.05	9943.73
2410.45	10002.6
2411.85	9944.89
2413.24	9926.16
2414.64	9937.1
2416.04	9927.76
2417.43	9899.35
2418.83	9871.74
2420.23	9899.78
2421.62	9875.1
2423.02	9878.83
2424.41	9880.47
2425.81	9839.93
2427.2	9791.99
2428.6	9816.11
2429.99	9794.03
2431.38	9810.37
2432.78	9823.8
2434.17	9812.88
2435.56	9765.65
2436.96	9743.58
2438.35	9737.17
2439.74	9711.92
2441.13	9780.3
2442.53	9741.23
2443.92	9701.66
2445.31	9656.64
2446.7	9708.76
2448.09	9661.2
2449.48	9703.03
2450.87	9669.9
2452.26	9613.62
2453.65	9667.94
2455.04	9600.1
2456.43	9621.22
2457.82	9604.88
2459.21	9623.2
2460.6	9585.09
2461.98	9569.31
2463.37	9584.94
2464.76	9572.99
2466.15	9534.75
2467.53	9517.26
2468.92	9506.69
2470.31	9487.35
2471.7	9511.88
2473.08	9489.3
2474.47	9457.01
2475.85	9474.48
2477.24	9471.96
2478.63	9430.24
2480.01	9450.36
2481.39	9411.5
2482.78	9406.24
2484.16	9418.28
2485.55	9369.31
2486.93	9416.52
2488.32	9405.38
2489.7	9371.03
2491.08	9352.88
2492.46	9345.95
2493.85	9324.38
2495.23	9351.99
2496.61	9322.53
2497.99	9360.94
2499.38	9274.04
2500.76	9310.06
2502.14	9248.45
2503.52	9227.78
2504.9	9255.77
2506.28	9254.65
2507.66	9218.37
2509.04	9225.09
2510.42	9233.97
2511.8	9216.13
2513.18	9167.28
2514.56	9196.32
2515.94	9157.17
2517.31	9152.76
2518.69	9154.94
2520.07	9181.71
2521.45	9153.96
2522.82	9111.67
2524.2	9128.92
2525.58	9139.68
2526.96	9088.2
2528.33	9160.69
2529.71	9108.73
2531.09	9076.18
2532.46	9086.56
2533.84	9057.44
2535.21	9065.43
2536.59	9014.82
2537.96	9055.23
2539.34	9021.6
2540.71	9040.14
2542.08	8991.84
2543.46	9019.12
2544.83	9012.97
2546.2	8951.18
2547.58	8974.01
2548.95	8924.4
2550.32	8923.02
2551.7	8934.09
2553.07	8919
2554.44	8895.43
2555.81	8912.08
2557.18	8873.19
2558.55	8916.46
2559.92	8902.12
2561.29	8831.43
2562.66	8843.87
2564.03	8842.79
2565.4	8845.36
2566.77	8835.43
2568.14	8833.44
2569.51	8802.42
2570.88	8820.4
2572.25	8838.34
2573.62	8799.85
2574.99	8858.32
2576.35	8826.03
2577.72	8787.97
2579.09	8813.92
2580.46	8825.15
2581.82	8794.41
2583.19	8800.65
2584.56	8756.37
2585.92	8768.08
2587.29	8778.32
2588.65	8814.06
2590.02	8805.21
2591.38	8800.96
2592.75	8749.61
2594.11	8780.79
2595.48	8756.39
2596.84	8789.61
2598.21	8739.56
2599.57	8773.97
2600.93	8723.69
2602.3	8724.31
2603.66	8741.52
2605.02	8697.11
2606.39	8743.72
2607.75	8701.59
2609.11	8723.78
2610.47	8689.11
2611.83	8679.68
2613.19	8663.23
2614.56	8657.53
2615.92	8659.22
2617.28	8669.31
2618.64	8632.97
2620	8656.56
2621.36	8651.16
2622.72	8618.84
2624.08	8643.9
2625.44	8586.9
2626.8	8580.08
2628.15	8604.93
2629.51	8605.99
2630.87	8614.88
2632.23	8604.63
2633.59	8574.13
2634.94	8640.08
2636.3	8543.5
2637.66	8524.18
2639.01	8587.08
2640.37	8540.11
2641.73	8576.41
2643.08	8587.18
2644.44	8611.98
2645.79	8570.43
2647.15	8579.76
2648.5	8613.77
2649.86	8575.59
2651.21	8613.56
2652.57	8568.26
2653.92	8582.21
2655.28	8530.92
2656.63	8572.09
2657.98	8610.29
2659.33	8529.94
2660.69	8574.23
2662.04	8597.86
2663.39	8583.93
2664.75	8553.13
2666.1	8555.16
2667.45	8624.07
2668.8	8589.02
2670.15	8553.79
2671.5	8564.82
2672.85	8559.55
2674.2	8542.43
2675.55	8575.45
2676.9	8549.07
2678.25	8522.41
2679.6	8538.85
2680.95	8518.29
2682.3	8459.59
2683.65	8514.48
2685	8527.38
2686.35	8501.7
2687.7	8482.26
2689.04	8480.63
2690.39	8486.48
2691.74	8459.95
2693.09	8453.97
2694.43	8447.83
2695.78	8431.81
2697.13	8442.87
2698.47	8461.14
2699.82	8463.17
2701.16	8513.5
2702.51	8559.16
2703.85	8538.6
2705.2	8558.28
2706.54	8570.71
2707.89	8615.02
2709.23	8615.47
2710.58	8614.67
2711.92	8641.97
2713.26	8648.42
2714.61	8627.7
2715.95	8696.63
2717.29	8697.17
2718.64	8693.74
2719.98	8681.23
2721.32	8670.22
2722.66	8700.76
2724	8690.38
2725.35	8672.63
2726.69	8714.62
2728.03	8685
2729.37	8693.89
2730.71	8642.32
2732.05	8622.63
2733.39	8572.34
2734.73	8569.11
2736.07	8514.01
2737.41	8444.57
2738.75	8361.72
2740.09	8354.88
2741.42	8263.96
2742.76	8278.12
2744.1	8246.6
2745.44	8207.7
2746.78	8229.93
2748.11	8154.74
2749.45	8129.96
2750.79	8101.05
2752.12	8058.83
2753.46	8055.54
2754.8	8074.82
2756.13	8051.21
2757.47	8043.21
2758.81	7982.48
2760.14	7986.8
2761.47	7958.76
2762.81	7971.15
2764.14	7935.74
2765.48	7985.92
2766.81	7921.47
2768.15	7948.7
2769.48	7898.61
2770.81	7915.29
2772.15	7936.68
2773.48	7909.86
2774.81	7862.94
2776.14	7891.67
2777.48	7866.1
2778.81	7826.55
2780.14	7866.12
2781.47	7835.11
2782.8	7843.73
2784.13	7830.69
2785.47	7809.29
2786.8	7787.54
2788.13	7803.46
2789.46	7839.73
2790.79	7790.07
2792.12	7861.67
2793.44	7833.47
2794.77	7849.64
2796.1	7835.06
2797.43	7850.33
2798.76	7864.05
2800.09	7852.66
2801.42	7854.4
2802.74	7894.86
2804.07	7823.49
2805.4	7840
2806.73	7841.59
2808.05	7857.71
2809.38	7889.48
2810.71	7913.54
2812.03	7888.51
2813.36	7954.94
2814.68	7990.08
2816.01	7988.13
2817.33	8047.27
2818.66	8061.04
2819.98	8122.09
2821.31	8146.69
2822.63	8173.59
2823.96	8228.33
2825.28	8326.34
2826.6	8379.42
2827.93	8495.56
2829.25	8624.82
2830.57	8753.08
2831.9	8913.16
2833.22	9107.88
2834.54	9370.56
2835.86	9677.72
2837.19	10102.5
2838.51	10572.6
2839.83	11234
2841.15	12020.3
2842.47	12970.4
2843.79	13990.1
2845.11	15078.2
2846.43	16100.8
2847.75	16985.2
2849.07	17611
2850.39	17861.6
2851.71	17892.7
2853.03	17717.8
2854.35	17433
2855.66	17063.2
2856.98	16761.9
2858.3	16529
2859.62	16209.2
2860.94	15915.7
2862.25	15777.2
2863.57	15559.8
2864.89	15426.1
2866.2	15421.8
2867.52	15408.2
2868.84	15565.3
2870.15	15752.5
2871.47	15947.1
2872.78	16188.6
2874.1	16365.1
2875.41	16472.5
2876.73	16672.3
2878.04	16918.9
2879.36	17021
2880.67	17267.5
2881.98	17321.6
2883.3	17403.2
2884.61	17360.5
2885.92	17293.9
2887.24	17325.8
2888.55	17325.7
2889.86	17318.7
2891.18	17275.3
2892.49	17329.7
2893.8	17197.2
2895.11	17236.6
2896.42	17243.6
2897.73	17202.8
2899.04	17197
2900.35	17224.2
2901.67	17110.9
2902.97	17021.3
2904.29	17074.3
2905.59	16985.3
2906.9	16950.3
2908.21	16916
2909.52	16879.3
2910.83	16855.2
2912.14	16775.1
2913.45	16732.5
2914.76	16741.1
2916.06	16717.4
2917.37	16617.4
2918.68	16676.3
2919.99	16635.7
2921.29	16592.5
2922.6	16640.7
2923.91	16599.8
2925.21	16627.4
2926.52	16641.9
2927.82	16626.9
2929.13	16615.3
2930.44	16627.1
2931.74	16600.1
2933.05	16573.2
2934.35	16451.8
2935.65	16286
2936.96	16039.8
2938.26	15873
2939.57	15493.6
2940.87	15059.9
2942.17	14548.2
2943.48	14085.1
2944.78	13636.5
2946.08	13225.2
2947.38	12871.8
2948.69	12577.8
2949.99	12353.1
2951.29	12218.5
2952.59	12074.7
2953.89	11973.5
2955.19	11888.2
2956.49	11777.3
2957.8	11692.3
2959.1	11588.5
2960.4	11467.7
2961.7	11343.7
2962.99	11254.1
2964.29	11027.7
2965.59	10789.4
2966.89	10723.2
2968.19	10581.3
2969.49	10380.8
2970.79	10165.2
2972.09	9975.02
2973.38	9908.1
2974.68	9685.93
2975.98	9591.99
2977.28	9425.8
2978.57	9335.71
2979.87	9228.54
2981.17	9136.67
2982.46	9027.36
2983.76	8966.68
2985.05	8846.32
2986.35	8794.75
2987.65	8737.96
2988.94	8647.08
2990.24	8575.44
2991.53	8501.8
2992.82	8498.52
2994.12	8500.12
2995.41	8483.58
2996.71	8430.94
2998	8412.47
2999.29	8374.19
3000.59	8407.31
3001.88	8398.49
3003.17	8390.8
3004.47	8387.96
3005.76	8357.42
3007.05	8311.56
3008.34	8225.04
3009.63	8242.68
3010.92	8161.74
3012.21	8078.44
3013.5	8032.96
3014.8	7938.39
3016.09	7897.05
3017.38	7805.69
3018.67	7758.73
3019.96	7723.95
3021.25	7655.11
3022.54	7617.77
3023.82	7573.64
3025.11	7528.81
3026.4	7566.88
3027.69	7534.25
3028.98	7448.22
3030.27	7411.67
3031.55	7436
3032.84	7426.29
3034.13	7444.2
3035.42	7441.9
3036.7	7427.72
3037.99	7397.54
3039.28	7398.33
3040.56	7406.06
3041.85	7417.02
3043.13	7405.62
3044.42	7383.04
3045.7	7461.59
3046.99	7430.89
3048.27	7413.57
3049.56	7419.06
3050.84	7439.56
3052.13	7434.76
3053.41	7424.6
3054.69	7494.59
3055.98	7500.03
3057.26	7473.7
3058.54	7521.77
3059.83	7495.29
3061.11	7509.03
3062.39	7569.74
3063.67	7543.68
3064.95	7538.12
3066.24	7577.66
3067.52	7568.08
3068.8	7575.51
3070.08	7553.27
3071.36	7543.99
3072.64	7545.25
3073.92	7579.77
3075.2	7591.92
3076.48	7526.77
3077.76	7556.83
3079.04	7585
3080.32	7549.01
3081.6	7578.93
3082.88	7606.76
3084.16	7549.61
3085.44	7650.49
3086.71	7603.01
3087.99	7580.2
3089.27	7638.59
3090.55	7647.98
3091.82	7676.19
3093.1	7655.33
3094.38	7702.81
3095.65	7674.36
3096.93	7695.55
3098.21	7701
3099.48	7692.19
3100.76	7769.3
3102.03	7758.46
3103.31	7796.5
3104.58	7809.74
3105.86	7798.49
3107.13	7833.42
3108.41	7891.53
3109.68	7946.23
3110.96	7970.83
3112.23	7989.07
3113.5	7968.99
3114.78	8034.79
3116.05	8026.61
3117.32	8073.97
3118.59	8102.96
3119.87	8098.86
3121.14	8127.76
3122.41	8141.31
3123.68	8156.02
3124.95	8174.6
3126.23	8223.4
3127.5	8263.73
3128.77	8261.4
3130.04	8310.51
3131.31	8392.84
3132.58	8364.3
3133.85	8384.81
3135.12	8466.67
3136.39	8485.26
3137.66	8480.29
3138.93	8469.26
3140.2	8501.26
3141.46	8529.19
3142.73	8562.09
3144	8577.61
3145.27	8583.35
3146.54	8624.57
3147.8	8686.8
3149.07	8708.48
3150.34	8763.07
3151.6	8771.7
3152.87	8813.92
3154.14	8857.52
3155.4	8861.99
3156.67	8873.44
3157.94	8967.48
3159.2	8998.17
3160.47	8937.47
3161.73	8947.27
3163	9004.71
3164.26	9077.92
3165.53	9104.87
3166.79	9107.84
3168.05	9058.45
3169.32	9056.61
3170.58	9120.01
3171.84	9058.37
3173.11	9063.22
3174.37	9023.91
3175.63	9047.47
3176.9	9076.99
3178.16	9058.49
3179.42	9072.03
3180.68	9071.16
3181.94	9049.38
3183.21	9091.43
3184.47	9086.97
3185.73	9065.62
3186.99	9081.85
3188.25	9075.83
3189.51	9094.61
3190.77	9075.41
3192.03	9078.42
3193.29	9056.94
3194.55	9039.63
3195.81	9024.71
3197.07	9032.61
3198.33	9029.47
3199.58	9035.24
3200.84	9020.12
3202.1	9026.32
3203.36	9034.59
3204.62	9041.93
3205.87	9008.25
3207.13	9005.93
3208.39	8971.76
3209.65	8986.22
3210.9	8982.24
3212.16	8979.63
3213.41	8929.91
3214.67	8914.32
3215.93	8931.28
3217.18	8908.25
3218.44	8883.52
3219.69	8869.97
3220.95	8864.92
3222.2	8864.73
3223.46	8850.35
3224.71	8874.2
3225.97	8837.64
3227.22	8801.32
3228.47	8807.7
3229.73	8799.17
3230.98	8803.36
3232.23	8763.11
3233.48	8752.37
3234.74	8726.77
3235.99	8734.4
3237.24	8713.5
3238.49	8700.24
3239.75	8657.62
3241	8669.73
3242.25	8643.48
3243.5	8632.21
3244.75	8634.41
3246	8581.68
3247.25	8591.25
3248.5	8572.24
3249.75	8550.65
3251	8528.97
3252.25	8502.58
3253.5	8499.31
3254.75	8473.57
3256	8455.46
3257.25	8425.78
3258.49	8428.77
3259.74	8363.39
3260.99	8383.64
3262.24	8344.66
3263.49	8334.04
3264.73	8315.53
3265.98	8307.95
3267.23	8319.7
3268.47	8319.15
3269.72	8283.4
3270.97	8252.07
3272.21	8267.33
3273.46	8275.92
3274.7	8234.42
3275.95	8207.88
3277.2	8192.03
3278.44	8135.02
3279.69	8118.38
3280.93	8138.35
3282.17	8107.58
3283.42	8096.01
3284.66	8099.74
3285.91	8082.86
3287.15	8052.44
3288.39	8081.99
3289.64	8039.13
3290.88	8017.66
3292.12	8004.57
3292.31	7991.67
3293.56	7986.8
3294.8	7985.15
3296.05	7964.63
3297.3	7964.24
3298.55	7970.79
3299.79	7923.71
3301.04	7892.02
3302.29	7937.01
3303.54	7927.11
3304.78	7912.58
3306.03	7894.23
3307.27	7885.01
3308.52	7843.63
3309.76	7869.19
3311.01	7853.34
3312.26	7861.81
3313.5	7835.55
3314.75	7820.84
3315.99	7792.79
3317.23	7774.81
3318.48	7783.74
3319.72	7822.24
3320.97	7776.02
3322.21	7778.68
3323.45	7778.22
3324.7	7754.41
3325.94	7734.31
3327.18	7772.94
3328.42	7738.13
3329.67	7680.63
3330.91	7711.49
3332.15	7682.72
3333.39	7734.55
3334.63	7693.15
3335.87	7666.06
3337.12	7709.91
3338.36	7666.39
3339.6	7662.81
3340.84	7632.36
3342.08	7611.36
3343.32	7622.71
3344.56	7582.74
3345.8	7595.87
3347.04	7573.95
3348.27	7575.37
3349.51	7524.71
3350.75	7561.99
3351.99	7566.87
3353.23	7543.77
3354.47	7528.25
3355.7	7544.96
3356.94	7527.99
3358.18	7510.58
3359.42	7497.78
3360.65	7515.54
3361.89	7489.68
3363.13	7494.44
3364.36	7489.2
3365.6	7473.09
3366.83	7473.09
3368.07	7463.65
3369.31	7468.17
3370.54	7455.64
3371.78	7431.49
3373.01	7476.35
3374.25	7450.83
3375.48	7422.14
3376.71	7425.08
3377.95	7443.2
3379.18	7391.41
3380.42	7410.5
3381.65	7392.64
3382.88	7395.04
3384.12	7362.04
3385.35	7366.13
3386.58	7346.01
3387.81	7342.15
3389.04	7325.82
3390.28	7323.64
3391.51	7332.6
3392.74	7345.55
3393.97	7329.06
3395.2	7321.03
3396.43	7305.37
3397.67	7311.37
3398.9	7269.08
3400.13	7301.96
3401.36	7260.39
3402.58	7217.19
3403.82	7252.58
3405.05	7225.1
3406.27	7213.93
3407.5	7216.29
3408.73	7174.25
3409.96	7149.02
3411.19	7187.19
3412.42	7168.58
3413.64	7151.68
3414.87	7173.99
3416.1	7126.19
3417.33	7109.28
3418.55	7084.34
3419.78	7063.86
3421.01	7105.86
3422.23	7063.03
3423.46	7044.55
3424.69	7019.05
3425.91	7017.22
3427.14	6993.35
3428.36	6983.73
3429.59	6982.96
3430.81	6917.17
3432.04	6935.18
3433.26	6903.76
3434.49	6872.43
3435.71	6872.79
3436.94	6849.42
3438.16	6837.68
3439.39	6809.33
3440.61	6793.87
3441.83	6819.16
3443.05	6774.75
3444.28	6729.19
3445.5	6738.54
3446.72	6693.76
3447.95	6699.22
3449.17	6623.38
3450.39	6632.17
3451.61	6659.8
3452.83	6636.19
3454.05	6602.62
3455.27	6576.26
3456.5	6582.65
3457.71	6513.21
3458.94	6527.8
3460.16	6506.12
3461.38	6485.83
3462.59	6444.06
3463.81	6439.18
3465.03	6440.04
3466.25	6403.48
3467.47	6379.04
3468.69	6364.01
3469.91	6318.68
3471.13	6320.2
3472.35	6241.29
3473.56	6212.85
3474.78	6200.97
3476	6186.06
3477.22	6135.75
3478.43	6094.76
3479.65	6116.58
3480.87	6095.8
3482.08	6052.86
3483.3	5994.68
3484.52	5975.3
3485.73	5967.48
3486.95	5984.45
3488.16	5948.66
3489.38	5879.16
3490.59	5858.03
3491.81	5863.06
3493.02	5796.25
3494.24	5781.67
3495.45	5768.69
3496.67	5728.12
3497.88	5699.58
3499.09	5666.03
