#Acq. time (s)=	10
#Accumulations=	10
#Range (cm-¹)=	400...3500
#Windows=	3
#Auto scanning=	Off
#Autofocus=	Off
#AutoExposure=	Off
#Spike filter=	Multiple accum.
#Delay time (s)=	0
#Binning=	1
#Readout mode=	Signal
#DeNoise=	Off
#ICS correction=	On
#Dark correction=	Off
#Inst. Process=	Off
#Detector Gain=	Best Dynamic Range
#Detector ADC=	45 kHz       
#Detector temperature (°C)=	-60.1
#Instrument=	LabRAM HR Evol
#Detector=	Syncerity OE
#Objective=	x50_VIS_LWD
#Grating=	600 (500nm)
#ND Filter=	50%
#Laser=	532nm_Edge
#Hole=	199.981
#Range=	Visible
#E-Cal_Neon=	0
#StageXY=	75x50mm Scan+
#StageZ=	Z motor
#X (µm)=	0
#Y (µm)=	0
#Z (µm)=	705.1
#Spectral res.(cm-¹)=	12.8
#Full time(mm:ss)=	5:19
#AC=	Calibrated 2025-07-01 10:31
#Project=	
#Sample=	
#Site=	
#Title=	D_1
#Remark=	
#Date=	01.07.2025 17:20 (India Standard Time)
#Acquired=	01.07.2025 17:20:10 (India Standard Time)
#AxisType[0]=Intens
#AxisUnit[0]=Cnt
#AxisType[1]=Spectr
#AxisUnit[1]=1/cm
400.083	35208.4
401.858	35074.9
403.63	34928.8
405.405	35109.4
407.176	35057.4
408.949	35073
410.72	35158.7
412.493	35037.1
414.263	35164.9
416.033	35193.9
417.805	35234.2
419.574	35075.8
421.345	35094.7
423.114	35200.4
424.884	35165.7
426.652	35179.7
428.421	35226.5
430.188	35181.8
431.955	35177.2
433.724	35246.6
435.49	35186.3
437.258	35212.6
439.023	35170.8
440.788	35159.7
442.555	35114.1
444.32	35150
446.084	35214.1
447.85	35166.7
449.613	35155.6
451.376	35050.5
453.141	35054.1
454.904	35042.4
456.666	35129.4
458.429	35150.6
460.191	35011.6
461.952	35018.5
463.715	35095.3
465.475	35121.8
467.235	35104
468.995	35073.9
470.756	35172
472.515	35103.9
474.274	35139.4
476.032	35146.4
477.793	35069.4
479.55	35121.5
481.308	35136.8
483.065	35102.4
484.823	35062.4
486.58	35158.3
488.336	35176.2
490.091	35186.6
491.847	35218.9
493.604	35110.5
495.358	35110
497.113	35330.5
498.867	35290.2
500.62	35290.9
502.374	35450.5
504.127	35457.4
505.881	35431.1
507.634	35369.7
509.386	35436.1
511.137	35427.2
512.888	35461.4
514.639	35472.5
516.39	35406.9
518.14	35429.6
519.89	35383.5
521.642	35336.6
523.391	35308.9
525.14	35299.2
526.889	35293.4
528.637	35293.1
530.385	35340.2
532.133	35337.7
533.88	35226.6
535.627	35295
537.373	35198
539.12	35341.2
540.866	35135.2
542.611	35218.4
544.357	35179.2
546.101	35147
547.846	35165.7
549.59	35152
551.334	35175.9
553.078	35133.1
554.821	35202.8
556.564	35209.4
558.307	35227.7
560.049	35230.5
561.789	35187.7
563.53	35272.3
565.272	35318.6
567.013	35307.8
568.753	35267.4
570.494	35322.6
572.233	35245.9
573.973	35254.3
575.712	35350.9
577.449	35394.8
579.188	35359.7
580.926	35309.3
582.664	35368.4
584.402	35394.8
586.139	35458
587.876	35414.6
589.611	35390.5
591.347	35427.8
593.083	35320.6
594.818	35402
596.554	35512.8
598.287	35476.4
600.021	35407.3
601.756	35423.5
603.49	35484.3
605.221	35489.4
606.955	35380.5
608.688	35384.9
610.42	35351.5
612.15	35352.1
613.882	35327.1
615.614	35391
617.345	35421.9
619.074	35295.8
620.805	35281
622.535	35269.6
624.263	35170.6
625.993	35220
627.722	35251.4
629.45	35155.4
631.178	35033.9
632.907	35101.9
634.633	35289.4
636.36	35239.9
638.088	35226
639.813	35280.5
641.539	35363.6
643.264	35284.3
644.99	35265.4
646.716	35157.5
648.439	35053.4
650.164	35122.8
651.887	35097.6
653.611	35136.5
655.335	35189.4
657.057	35081.5
658.781	35161.4
660.502	35192.6
662.225	35035.5
663.945	35109.8
665.667	35122.3
667.387	35204.8
669.108	35221.3
670.828	35066.2
672.548	35093.4
674.267	35071
675.987	35064.2
677.705	35154.2
679.424	35143.3
681.142	35111.9
682.86	35172.5
684.577	35182.8
686.293	35227
688.011	35187.4
689.727	35177.8
691.444	35264.2
693.159	35181.2
694.875	35287.1
696.59	35252.9
698.304	35332.6
700.019	35294.2
701.733	35258
703.448	35310.7
705.16	35282
706.872	35128.9
708.586	35189.6
710.298	35160.6
712.01	35269.1
713.723	35189.1
715.433	35256.4
717.144	35186.1
718.856	35213.1
720.565	35250.7
722.275	35428.2
723.984	35215.9
725.695	35302.7
727.403	35252.7
729.111	35296.4
730.821	35193.2
732.528	35241.8
734.235	35214.9
735.942	35240.2
737.651	35245
739.357	35265.3
741.063	35113
742.768	35228
744.474	35124.2
746.18	35281.5
747.885	35317.6
749.589	35282.9
751.293	35373.1
752.997	35344.2
754.702	35329.1
756.405	35495.9
758.108	35396.5
759.81	35443.9
761.512	35340.1
763.214	35424.7
764.915	35443.3
766.618	35369
768.319	35458.6
770.019	35401.8
771.719	35444.8
773.419	35533.5
775.118	35465.4
776.817	35524.4
778.516	35440.3
780.214	35434.4
781.913	35367
783.61	35526.8
785.308	35466.4
787.005	35451.6
788.702	35375.5
790.398	35351.6
792.095	35374.2
793.791	35281.5
795.486	35408.7
797.181	35400
798.876	35452.1
800.571	35411.8
802.265	35484.4
803.959	35607.9
805.653	35539.6
807.346	35616.5
809.039	35490.6
810.732	35532.3
812.424	35463.9
814.116	35407.5
815.808	35557.6
817.5	35558.3
819.191	35665.2
820.881	35681.1
822.572	35860.7
824.26	35927.6
825.95	35915.4
827.639	35930.4
829.329	35921.6
831.018	35941.1
832.706	35916.4
834.394	35946.2
836.08	36049.5
837.768	35995.4
839.455	36009.5
841.142	36141.2
842.829	36345.7
844.513	36287.5
846.199	36332.2
847.885	36294.4
849.57	36263.8
851.255	36295.3
852.938	36388.2
854.623	36309.7
856.307	36382.9
857.991	36350.7
859.672	36486.7
861.355	36407.2
863.038	36508
864.719	36464.8
866.401	36518.3
868.083	36379.2
869.765	36425.7
871.444	36489.8
873.125	36436.9
874.806	36516.1
876.484	36611.8
878.164	36347.7
879.844	36351
881.521	36243.1
883.2	36240.7
884.877	36224.6
886.555	36221.7
888.234	36315.1
889.909	36258.8
891.587	36135.4
893.262	35995.5
894.939	35933.9
896.616	35929.9
898.29	35886
899.966	35731.3
901.64	35686.6
903.315	35690.6
904.988	35628.8
906.663	35588.1
908.335	35650.1
910.009	35556
911.683	35488.4
913.354	35524.5
915.027	35466.6
916.698	35452.7
918.369	35483
920.041	35446.9
921.711	35359.1
923.383	35425.9
925.052	35327.8
926.723	35246.5
928.391	35124.8
930.062	35244.5
931.73	35172.3
933.399	35261.3
935.067	35167.4
936.734	35200.9
938.403	35240.3
940.069	35222.5
941.737	35284.7
943.403	35238
945.069	35214.6
946.736	35202.5
948.401	35208.4
950.065	35112.8
951.732	35150.4
953.396	35128.6
955.059	35174.1
956.725	35163.9
958.388	35156.4
960.051	35243.8
961.715	35240.1
963.377	35300.2
965.039	35295.5
966.7	35235.1
968.364	35269.8
970.025	35203.5
971.685	35002.8
973.345	35149.2
975.007	35081.9
976.667	35074.9
978.326	35101.8
979.985	35121.5
981.646	35104.1
983.304	35132.3
984.963	35138.3
986.62	35152.9
988.278	35213.7
989.935	35187
991.594	35263.7
993.25	35280.6
994.907	35407.7
996.563	35539.3
998.218	35860.8
999.874	35919.6
1001.53	35920
1003.19	35771.5
1004.84	35599.2
1006.49	35495.1
1008.15	35446.7
1009.8	35438.2
1011.45	35380.9
1013.11	35318.8
1014.76	35304.1
1016.41	35441.8
1018.06	35377.9
1019.72	35306.3
1021.37	35256.7
1023.02	35301.7
1024.67	35355.1
1026.32	35187.4
1027.97	35206.1
1029.62	35267.2
1031.27	35176
1032.92	35265.7
1034.57	35163.2
1036.22	35232.5
1037.86	35141.7
1039.51	35216.2
1041.16	35254.8
1042.81	35197.9
1044.45	35102.8
1046.1	35134.9
1047.75	35245.1
1049.39	35332.9
1051.04	35396.5
1052.68	35360.7
1054.33	35453.2
1055.97	35689.9
1057.62	35731.7
1059.26	35835.8
1060.91	35918.8
1062.55	35975
1064.19	35871.2
1065.83	35729.9
1067.48	35888.2
1069.12	35828.5
1070.76	35863.4
1072.4	36122.7
1074.04	36138.4
1075.68	36116.3
1077.32	36100.8
1078.97	36083.4
1080.61	35990.5
1082.24	36045
1083.88	35841.5
1085.52	35840.5
1087.16	35673.4
1088.8	35598
1090.44	35430.1
1092.08	35309.3
1093.71	35160.9
1095.35	35014.8
1096.99	34949.6
1098.62	34756.7
1100.26	34728.1
1101.9	34783.7
1103.53	34589.7
1105.17	34603.8
1106.8	34636
1108.44	34761.5
1110.07	34756.5
1111.7	34872.4
1113.34	34931.1
1114.97	35004.3
1116.6	35037.5
1118.23	35099.6
1119.87	35096.5
1121.5	34994.5
1123.13	35011.3
1124.76	34831.7
1126.39	34683.8
1128.03	34422.7
1129.65	34304.9
1131.29	34247
1132.91	34252.6
1134.54	34233.8
1136.17	34199.9
1137.8	34156.5
1139.43	34225
1141.06	34175
1142.69	34296.3
1144.31	34473.8
1145.94	34567.8
1147.57	34727.3
1149.19	34914.1
1150.82	35102.8
1152.45	35286
1154.07	35287.7
1155.7	35115.3
1157.32	34805.1
1158.95	34576.6
1160.57	34275
1162.2	34087.3
1163.82	33931.4
1165.44	33925.5
1167.07	33864.5
1168.69	33838
1170.31	33762.5
1171.94	33660.1
1173.56	33645.4
1175.18	33597.4
1176.8	33648.6
1178.42	33576.9
1180.04	33496.9
1181.66	33592.8
1183.28	33595.8
1184.9	33657.4
1186.52	33552
1188.14	33510.1
1189.76	33663.2
1191.38	33576.1
1192.99	33503.3
1194.61	33428.5
1196.23	33429.7
1197.85	33425.7
1199.46	33376.9
1201.08	33403
1202.7	33381.4
1204.31	33392
1205.93	33358.4
1207.54	33329.4
1209.16	33388.5
1210.78	33391.9
1212.39	33297.7
1214	33162
1215.62	33141.9
1217.23	33162.2
1218.84	33152.4
1220.46	33301.7
1222.07	33270.6
1223.68	33225.5
1225.29	33304.9
1226.91	33344.3
1228.52	33362.2
1230.13	33421.8
1231.74	33377.4
1233.35	33441.8
1234.96	33410
1236.57	33412
1238.18	33428.6
1239.79	33520.6
1241.4	33550.6
1243	33682.1
1244.61	33698.9
1246.22	33800.2
1247.83	33846.9
1249.43	33703.3
1251.04	33825.2
1252.65	33795.9
1254.25	34011
1255.86	33999.5
1257.47	33966
1259.07	34027.4
1260.68	33983.1
1262.28	34050.9
1263.89	34033.3
1265.49	34033.5
1267.09	34000.5
1268.7	33795.1
1270.3	33783.8
1271.9	33868.2
1273.51	33826.7
1275.11	33709.1
1276.71	33667.2
1278.31	33704
1279.91	33699.4
1281.52	33768.7
1283.12	33899.1
1284.72	33855.4
1286.32	33887.2
1287.92	34071.6
1289.52	34291.5
1291.12	34503.7
1292.72	34743.1
1294.31	35007.6
1295.91	35219.6
1297.51	35287.9
1299.11	35335.1
1300.71	35255.5
1302.3	35257
1303.9	34993.9
1305.5	34849.2
1307.09	34591.4
1308.69	34397.7
1310.28	34230
1311.88	34007.9
1313.47	33803.4
1315.07	33568.4
1316.66	33474.8
1318.26	33330
1319.85	33309.7
1321.44	33128.5
1323.04	33103.7
1324.63	33002.8
1326.22	32889.4
1327.82	32844.3
1329.41	32703.2
1331	32801.4
1332.59	32806.5
1334.18	32688.2
1335.77	32692.3
1337.36	32702.8
1338.95	32743.2
1340.54	32713
1342.13	32654.7
1343.72	32599.7
1345.31	32482.4
1346.9	32527.3
1348.49	32504.7
1350.07	32421.4
1351.66	32405
1353.25	32387.1
1354.84	32312.1
1356.42	32219.4
1358.01	32225.6
1359.6	32127.7
1361.18	32154.6
1362.77	32200.6
1364.35	32196.2
1365.94	32144.2
1367.52	32035.8
1369.11	32062.2
1370.69	31983.3
1372.28	31998.4
1373.86	31910.4
1375.44	31659
1377.02	31570.1
1378.61	31617.7
1380.19	31556.5
1381.77	31557.2
1383.35	31528.5
1384.93	31501.8
1386.52	31572.8
1388.1	31552.9
1389.68	31566.2
1391.26	31599.4
1392.84	31583.1
1394.41	31544.8
1396	31524.5
1397.57	31571.4
1399.15	31457
1400.73	31567.4
1402.31	31583.2
1403.89	31561.4
1405.46	31518.4
1407.04	31618.6
1408.62	31630.8
1410.19	31711
1411.77	31843.5
1413.35	31962.3
1414.92	32050.5
1416.5	32145.3
1418.07	32126.3
1419.65	32296.3
1421.22	32327.8
1422.8	32527.8
1424.37	32769.1
1425.94	33174.2
1427.52	33597.3
1429.09	34223.2
1430.66	34767.6
1432.23	35497.4
1433.8	35838.4
1435.38	36005.3
1436.95	36038.4
1438.52	35941.9
1440.09	35744.7
1441.66	35588.5
1443.23	35376
1444.8	35259.4
1446.37	35115.7
1447.94	35003
1449.51	34842.3
1451.08	34642.5
1452.65	34442.5
1454.22	34334.6
1455.78	34213.4
1457.35	33896.3
1458.92	33740.7
1460.48	33459
1462.05	33126.4
1463.62	32891.8
1465.18	32541
1466.75	32245.8
1468.31	32031.6
1469.88	31839.5
1471.44	31616.3
1473.01	31268.1
1474.57	31077.5
1476.14	30951.8
1477.7	30819.9
1479.26	30692.6
1480.83	30654.8
1482.39	30568.1
1483.95	30605.3
1485.51	30533.1
1487.08	30349.7
1488.64	30444.1
1490.2	30443
1491.76	30452
1493.32	30431.2
1494.88	30551.6
1496.44	30474
1498	30488.8
1499.56	30460.8
1501.12	30498
1502.68	30423.8
1504.24	30520.2
1505.8	30720.9
1507.35	30710.2
1508.91	30788.1
1510.47	30960.3
1512.03	31067.2
1513.58	31168.5
1515.14	31180.4
1516.69	31374.7
1518.25	31230.7
1519.81	31302.7
1521.36	31247.6
1522.92	31112
1524.47	30909.6
1526.03	30808.6
1527.58	30611
1529.13	30433.7
1530.69	30214.2
1532.24	30139.5
1533.79	29993.9
1535.35	29929.2
1536.9	29872.8
1538.45	29832.3
1540	29844.2
1541.55	29824.2
1543.11	29740
1544.66	29680.7
1546.21	29667.7
1547.76	29660.9
1549.31	29665.2
1550.86	29629.2
1552.41	29561.1
1553.96	29493
1555.5	29531.7
1557.05	29401.3
1558.6	29452.1
1560.15	29617.9
1561.7	29536.3
1563.24	29463.2
1564.79	29436.4
1566.34	29447.6
1567.88	29474.3
1569.43	29534.5
1570.98	29496
1572.52	29497.8
1574.07	29520.2
1575.61	29401.8
1577.16	29449.3
1578.7	29506.5
1580.25	29423.3
1581.79	29440.2
1583.34	29441
1584.88	29333.2
1586.42	29348.4
1587.96	29321.8
1589.51	29277.1
1591.05	29366.8
1592.59	29341.4
1594.13	29326.2
1595.67	29292
1597.21	29425
1598.76	29376.1
1600.3	29499.4
1601.83	29393
1603.37	29439.6
1604.92	29364.5
1606.45	29330.3
1607.99	29385.1
1609.53	29439.9
1611.07	29293.5
1612.61	29237.8
1614.15	29148.5
1615.68	29170.3
1617.22	29156.1
1618.76	29139.5
1620.29	29138.2
1621.83	29151.4
1623.37	29146.2
1624.9	29178.2
1626.44	29159.3
1627.97	29185.3
1629.51	29196.2
1631.04	29277.9
1632.58	29327.6
1634.11	29392.7
1635.64	29423.6
1637.18	29378.8
1638.71	29470
1640.24	29635.7
1641.78	29692.5
1643.31	29843
1644.84	30110.5
1646.37	30479.3
1647.9	30721.7
1649.44	30933
1650.97	30938.3
1652.5	30939.5
1654.03	30757
1655.56	30454.2
1657.09	30156.5
1658.62	29980.8
1660.14	29641.7
1661.67	29453.7
1663.2	29379.1
1664.73	29437.1
1666.26	29253.6
1667.79	29150.9
1669.31	29126.4
1670.84	28972.3
1672.37	28948.8
1673.89	28895.2
1675.42	28717.4
1676.95	28671.6
1678.47	28467.7
1680	28455.4
1681.52	28450.5
1683.05	28353.7
1684.57	28206.6
1686.1	28158.5
1687.62	28120.7
1689.14	28069.4
1690.67	27951.4
1692.19	27981.5
1693.71	27935.8
1695.23	27894.5
1696.76	27763.1
1698.28	27802
1699.8	27668.7
1701.32	27654.7
1702.84	27642.5
1704.36	27652.8
1705.88	27589.1
1707.4	27581.9
1708.92	27545
1710.44	27408.6
1711.96	27404.3
1713.48	27451
1715	27470.6
1716.52	27403.6
1718.04	27324.8
1719.56	27350.2
1721.07	27376.3
1722.59	27424.1
1724.11	27426.5
1725.63	27476.6
1727.14	27470.9
1728.66	27497.4
1730.17	27535.2
1731.69	27631.7
1733.2	27660.5
1734.72	27720.8
1736.23	27762.9
1737.75	27859.6
1739.26	27862.3
1740.78	27844.8
1742.29	27946.6
1743.8	27889.4
1745.32	27864.1
1746.83	27864
1748.34	27775.1
1749.86	27725.1
1751.37	27550.3
1752.88	27474
1754.39	27334
1755.9	27127.9
1757.41	27064.3
1758.92	27035.6
1760.43	26910.6
1761.94	26853.6
1763.45	26775.2
1764.96	26797.7
1766.47	26726
1767.98	26746.2
1769.49	26702
1771	26662.3
1772.5	26611.9
1774.01	26668.9
1775.52	26698.3
1777.03	26591.7
1778.53	26628.6
1780.04	26582.4
1781.55	26611.9
1783.05	26469.8
1784.56	26550.9
1786.06	26529
1787.57	26517
1789.07	26520.1
1790.58	26485.3
1792.08	26437.9
1793.59	26448
1795.09	26506.6
1796.59	26436
1798.1	26473.3
1799.6	26294.7
1801.1	26223
1802.61	26182.9
1804.11	26299.3
1805.61	26240.7
1807.11	26127.8
1808.61	26217.5
1810.11	26204.3
1811.61	26167.8
1813.11	26155.2
1814.61	26204.1
1816.11	26111.5
1817.61	26081.1
1819.11	26106.5
1820.61	25993.1
1822.11	26033.1
1823.61	26032.7
1825.11	26021.6
1826.6	26025.9
1828.1	26035.9
1829.6	26021.7
1831.1	25985.1
1832.59	25958.1
1834.09	25984.5
1835.59	25922.6
1837.08	25912.3
1838.58	25869.8
1840.07	25904.5
1841.57	25828.5
1843.06	25904.7
1844.56	25916.2
1846.05	25874
1847.54	25895.8
1849.04	25803.7
1850.53	25828.5
1852.02	25667.6
1853.52	25709.3
1855.01	25641.3
1856.5	25709.3
1857.99	25697.6
1859.49	25668.4
1860.98	25606.1
1862.47	25598
1863.96	25666.1
1865.45	25685.4
1866.94	25668.1
1868.43	25560.2
1869.92	25628.1
1871.41	25561.5
1872.9	25557.7
1874.39	25460.9
1875.88	25531.6
1877.37	25514.9
1878.85	25448.5
1880.34	25450.3
1881.83	25426.7
1883.32	25346.1
1884.8	25362.9
1886.29	25316.3
1887.78	25301.8
1889.26	25308.6
1890.75	25324.6
1892.23	25284.2
1893.72	25327.5
1895.21	25208
1896.69	25150.7
1898.17	25136
1899.66	25013.2
1901.14	25021.2
1902.63	24982.6
1904.11	24888.5
1905.59	24803.6
1907.08	24785.5
1908.56	24652.2
1910.04	24627.9
1911.52	24626.6
1913	24519.6
1914.49	24506.1
1915.97	24405.5
1917.45	24315.4
1918.93	24180.4
1920.41	24228.7
1921.89	24129.3
1923.37	24076.6
1924.85	24007.3
1926.33	24037.9
1927.81	23924.1
1929.29	23902.9
1930.76	23853
1932.24	23758.3
1933.72	23758.1
1935.2	23681.1
1936.67	23553.9
1938.15	23533.9
1939.63	23474.3
1941.1	23393
1942.58	23361.5
1944.06	23324.8
1945.53	23266.6
1947.01	23226.3
1948.48	23149
1949.96	23058.5
1951.43	22995.6
1952.91	22911.1
1954.38	22810.5
1955.86	22801
1957.33	22686.3
1958.8	22661.6
1960.27	22645.8
1961.75	22623.3
1963.22	22555.8
1964.69	22505.2
1966.16	22446.3
1967.64	22354
1969.11	22365.4
1970.58	22281.1
1972.05	22223
1973.52	22202.5
1974.99	22094.1
1976.46	22050
1977.93	22006.7
1979.4	21954.8
1980.87	21920.9
1982.34	21894.2
1983.81	21850.8
1985.27	21767.9
1986.74	21729.6
1988.21	21676.3
1989.68	21609.9
1991.14	21515.4
1992.61	21468.8
1994.08	21458.4
1995.55	21379.4
1997.01	21311.6
1998.48	21271.1
1999.94	21191.8
2001.41	21134.9
2002.87	21083.5
2004.34	21070.9
2005.8	21003.2
2007.27	20955.3
2008.73	20961.8
2010.19	20917.5
2011.66	20892.1
2013.12	20848
2014.58	20777.2
2016.05	20702.5
2017.51	20685.4
2018.97	20572.6
2020.43	20542.9
2021.89	20530.5
2023.36	20472
2024.82	20415.3
2026.28	20361.6
2027.74	20325.5
2029.2	20310.4
2030.66	20274.4
2032.12	20215.9
2033.58	20178.7
2035.04	20140.9
2036.49	20081.4
2037.95	20024.6
2039.41	19999.2
2040.87	19988.1
2042.33	19938.7
2043.78	19891.4
2045.24	19858.7
2045.76	19839.9
2047.22	19836.3
2048.69	19817.2
2050.15	19789
2051.61	19758.9
2053.07	19760.3
2054.54	19751.8
2056	19747.7
2057.46	19752.6
2058.92	19738.4
2060.38	19689.9
2061.84	19687.6
2063.3	19651.7
2064.76	19628.1
2066.22	19662.2
2067.68	19636.4
2069.14	19647.2
2070.6	19550.7
2072.06	19580
2073.52	19595.1
2074.98	19520.9
2076.44	19542.9
2077.89	19484.1
2079.35	19481.3
2080.81	19451.7
2082.27	19480.8
2083.72	19454.8
2085.18	19436.8
2086.63	19394.4
2088.09	19374.7
2089.55	19385.3
2091	19387
2092.46	19362.2
2093.91	19329.8
2095.37	19364.4
2096.82	19300
2098.28	19263
2099.73	19309.5
2101.18	19185.2
2102.64	19236.9
2104.09	19185.2
2105.54	19162.2
2106.99	19152.1
2108.45	19132.4
2109.9	19135.5
2111.35	19092
2112.8	19068.8
2114.25	19085.2
2115.71	19066.3
2117.16	19070.1
2118.61	19059.3
2120.06	19050.4
2121.51	18962.6
2122.96	19004.8
2124.4	18998.6
2125.85	19088.1
2127.3	18952.8
2128.75	18942.3
2130.2	18878.9
2131.65	18925.7
2133.09	18880.3
2134.54	18948.2
2135.99	18886.2
2137.44	18894.9
2138.88	18873.2
2140.33	18888.4
2141.78	18857.6
2143.22	18833.6
2144.67	18865.3
2146.11	18847.8
2147.56	18801.5
2149	18807.9
2150.45	18773.4
2151.89	18773
2153.34	18780.5
2154.78	18793.5
2156.22	18754.3
2157.67	18698.5
2159.11	18756.5
2160.55	18678
2162	18705.8
2163.44	18645.6
2164.88	18713.3
2166.32	18676
2167.76	18649.5
2169.2	18656.8
2170.64	18645.1
2172.09	18644.6
2173.53	18624.1
2174.97	18550.8
2176.41	18574.3
2177.85	18530.8
2179.29	18575.6
2180.72	18470.8
2182.16	18558.4
2183.6	18493.8
2185.04	18489.2
2186.48	18476.5
2187.92	18423.4
2189.35	18399.8
2190.79	18400.4
2192.23	18403.6
2193.66	18410.4
2195.1	18379.8
2196.54	18368.8
2197.97	18396.4
2199.41	18312.9
2200.84	18341.1
2202.28	18340.2
2203.71	18268.4
2205.15	18312.8
2206.58	18277.7
2208.02	18231.2
2209.45	18280.1
2210.88	18195.3
2212.32	18082.6
2213.75	18115.7
2215.18	18106.4
2216.62	18075.8
2218.05	18075.1
2219.48	18075
2220.91	17993.1
2222.34	18019
2223.78	18033.3
2225.21	17942.9
2226.64	17957.2
2228.07	17909.1
2229.5	17901.2
2230.93	17878.2
2232.36	17912.1
2233.79	17968.5
2235.22	17800.1
2236.65	17911.5
2238.07	17764.1
2239.5	17832.9
2240.93	17751.7
2242.36	17713.6
2243.79	17742.1
2245.21	17734.1
2246.64	17705.8
2248.07	17666.1
2249.49	17700
2250.92	17651.9
2252.35	17662.6
2253.77	17648.9
2255.2	17624.1
2256.62	17525.9
2258.05	17483.4
2259.47	17441.6
2260.9	17458.9
2262.32	17417.5
2263.75	17384.8
2265.17	17356.5
2266.59	17312
2268.02	17291.3
2269.44	17334.1
2270.86	17267.9
2272.29	17281
2273.71	17196.7
2275.13	17222.8
2276.55	17169.2
2277.97	17193.4
2279.39	17176.2
2280.81	17113
2282.24	17086.2
2283.66	17073.9
2285.08	17011.5
2286.5	17017.3
2287.92	17021.7
2289.34	17018.4
2290.75	17037.6
2292.17	16962.4
2293.59	16984.6
2295.01	16915.1
2296.43	16942.3
2297.85	16912.2
2299.26	16928.8
2300.68	16886.5
2302.1	16842
2303.51	16777.5
2304.93	16790.7
2306.35	16750.8
2307.76	16746.2
2309.18	16716.7
2310.6	16722.1
2312.01	16737
2313.43	16737.6
2314.84	16652.5
2316.25	16585.9
2317.67	16599
2319.08	16606.2
2320.5	16578.4
2321.91	16567.6
2323.32	16637.6
2324.74	16732.9
2326.15	16718.9
2327.56	16805
2328.98	16686.7
2330.39	16497.6
2331.8	16410.4
2333.21	16382.1
2334.62	16336.6
2336.03	16374.4
2337.44	16349.4
2338.85	16332.2
2340.26	16320.3
2341.67	16294.8
2343.08	16261.6
2344.49	16286.9
2345.9	16213.9
2347.31	16214.6
2348.72	16190.4
2350.13	16124.7
2351.54	16143.1
2352.94	16078.7
2354.35	16117.2
2355.76	16084.9
2357.17	16049.3
2358.57	15972.1
2359.98	16032
2361.39	15982.8
2362.79	15951.4
2364.2	15974.2
2365.6	15987.3
2367.01	15938
2368.41	15935.8
2369.82	15941.9
2371.22	15926.3
2372.63	15853
2374.03	15890.6
2375.44	15821.9
2376.84	15823.4
2378.24	15779.3
2379.65	15767.3
2381.05	15787
2382.45	15766.7
2383.85	15793
2385.26	15736.4
2386.66	15665.9
2388.06	15704
2389.46	15717
2390.86	15658.6
2392.26	15670.9
2393.66	15643.1
2395.06	15610.7
2396.46	15617.4
2397.86	15598.3
2399.26	15520.7
2400.66	15544.2
2402.06	15589.6
2403.46	15533.4
2404.86	15564.5
2406.26	15522.3
2407.66	15441.2
2409.05	15495.4
2410.45	15470.6
2411.85	15447.1
2413.24	15456.9
2414.64	15367.8
2416.04	15418.7
2417.43	15398.7
2418.83	15378.8
2420.23	15312.2
2421.62	15286.8
2423.02	15311.9
2424.41	15275.2
2425.81	15347.7
2427.2	15295.1
2428.6	15237.6
2429.99	15217.7
2431.38	15252.1
2432.78	15195.5
2434.17	15234.5
2435.56	15171
2436.96	15130.9
2438.35	15139
2439.74	15119.6
2441.13	15128.4
2442.53	15074
2443.92	15080.9
2445.31	15090.3
2446.7	15034
2448.09	15061.6
2449.48	15049.2
2450.87	14997.6
2452.26	15023.3
2453.65	14951
2455.04	15017.5
2456.43	14921.7
2457.82	14931.4
2459.21	14919.8
2460.6	14908.8
2461.98	14877.1
2463.37	14885.9
2464.76	14845.2
2466.15	14817.3
2467.53	14819.8
2468.92	14842.6
2470.31	14815.2
2471.7	14784.3
2473.08	14776
2474.47	14745.4
2475.85	14732
2477.24	14754.7
2478.63	14710
2480.01	14671.2
2481.39	14718.6
2482.78	14689.7
2484.16	14679.4
2485.55	14658.4
2486.93	14649.4
2488.32	14653.2
2489.7	14611.4
2491.08	14640.7
2492.46	14611.9
2493.85	14569.1
2495.23	14550.6
2496.61	14531.4
2497.99	14521.6
2499.38	14509.5
2500.76	14461.6
2502.14	14483.4
2503.52	14456.7
2504.9	14433.8
2506.28	14390.8
2507.66	14384.5
2509.04	14370.6
2510.42	14343.4
2511.8	14316
2513.18	14343.7
2514.56	14301.1
2515.94	14320.5
2517.31	14288.5
2518.69	14246.3
2520.07	14288
2521.45	14222.9
2522.82	14263.8
2524.2	14250
2525.58	14233.7
2526.96	14265.6
2528.33	14219.9
2529.71	14177.8
2531.09	14204.5
2532.46	14172.9
2533.84	14169.6
2535.21	14160.6
2536.59	14095.7
2537.96	14136.1
2539.34	14118.7
2540.71	14096.5
2542.08	14107.6
2543.46	14003.9
2544.83	14017.2
2546.2	13998.2
2547.58	13963.5
2548.95	13992.2
2550.32	13953.8
2551.7	13925.3
2553.07	13982.9
2554.44	13876.9
2555.81	13903.7
2557.18	13913.9
2558.55	13894.4
2559.92	13876.7
2561.29	13880.9
2562.66	13848.6
2564.03	13876.3
2565.4	13800.5
2566.77	13840
2568.14	13765.2
2569.51	13796
2570.88	13795
2572.25	13798.4
2573.62	13779.6
2574.99	13768.5
2576.35	13764.2
2577.72	13762.2
2579.09	13720
2580.46	13707.5
2581.82	13707.4
2583.19	13732.9
2584.56	13701.4
2585.92	13682.7
2587.29	13664.7
2588.65	13682.2
2590.02	13690.7
2591.38	13641.3
2592.75	13660.3
2594.11	13648.1
2595.48	13650.2
2596.84	13633.6
2598.21	13562.3
2599.57	13558.2
2600.93	13560.1
2602.3	13503.8
2603.66	13545.6
2605.02	13582.8
2606.39	13533.9
2607.75	13595
2609.11	13547.6
2610.47	13497.1
2611.83	13537.8
2613.19	13517
2614.56	13432.1
2615.92	13392.7
2617.28	13446.5
2618.64	13463
2620	13442.8
2621.36	13449.5
2622.72	13349.6
2624.08	13332.8
2625.44	13390.4
2626.8	13371.1
2628.15	13340.7
2629.51	13290.5
2630.87	13307.4
2632.23	13328.8
2633.59	13341.5
2634.94	13298.2
2636.3	13276.5
2637.66	13254.1
2639.01	13294.3
2640.37	13283.1
2641.73	13239.3
2643.08	13277.2
2644.44	13217.8
2645.79	13194.3
2647.15	13149.5
2648.5	13198.1
2649.86	13197
2651.21	13174.2
2652.57	13139.2
2653.92	13183.4
2655.28	13132.8
2656.63	13089.7
2657.98	13115.4
2659.33	13118.9
2660.69	13127.3
2662.04	13129.7
2663.39	13118
2664.75	13098.1
2666.1	13064.6
2667.45	13046.2
2668.8	13050
2670.15	13060
2671.5	13024.6
2672.85	13107.6
2674.2	13051
2675.55	13038.5
2676.9	12978.6
2678.25	12987.5
2679.6	12943.9
2680.95	12917.3
2682.3	12959.3
2683.65	12891.1
2685	12888
2686.35	12903.2
2687.7	12907.2
2689.04	12906.8
2690.39	12871.5
2691.74	12880.7
2693.09	12886.7
2694.43	12833.2
2695.78	12870.2
2697.13	12823.1
2698.47	12869.5
2699.82	12789.8
2701.16	12872.6
2702.51	12814.8
2703.85	12849.3
2705.2	12844.9
2706.54	12815.7
2707.89	12832.2
2709.23	12831.4
2710.58	12826.1
2711.92	12826.6
2713.26	12762.7
2714.61	12768.4
2715.95	12791.8
2717.29	12753.4
2718.64	12767.2
2719.98	12735.1
2721.32	12716.5
2722.66	12703.5
2724	12666.2
2725.35	12697.8
2726.69	12700.5
2728.03	12687.5
2729.37	12687.7
2730.71	12669.6
2732.05	12604.3
2733.39	12590.8
2734.73	12577.5
2736.07	12566.4
2737.41	12501
2738.75	12527.8
2740.09	12448.9
2741.42	12446.7
2742.76	12444.2
2744.1	12453.5
2745.44	12422.6
2746.78	12425.5
2748.11	12374.7
2749.45	12328.3
2750.79	12352.3
2752.12	12330.8
2753.46	12292.9
2754.8	12235.6
2756.13	12280.9
2757.47	12309.7
2758.81	12360.4
2760.14	12238.9
2761.47	12251.2
2762.81	12226.2
2764.14	12201.2
2765.48	12153.3
2766.81	12162.8
2768.15	12141.3
2769.48	12174.7
2770.81	12155.9
2772.15	12114.1
2773.48	12114.6
2774.81	12093
2776.14	12062.5
2777.48	12096.9
2778.81	12071.8
2780.14	12013.5
2781.47	12024.2
2782.8	12000
2784.13	11973.3
2785.47	11966.9
2786.8	11968.2
2788.13	11907.3
2789.46	11933.8
2790.79	11933.3
2792.12	11936
2793.44	11975.9
2794.77	11979.2
2796.1	11957.9
2797.43	11966.2
2798.76	11935.1
2800.09	11899.5
2801.42	11901.8
2802.74	11914.8
2804.07	11860.6
2805.4	11855.7
2806.73	11839
2808.05	11828.9
2809.38	11846.9
2810.71	11837.4
2812.03	11797.4
2813.36	11840.1
2814.68	11834.6
2816.01	11835.6
2817.33	11852.3
2818.66	11870
2819.98	11799.7
2821.31	11901.5
2822.63	11864.5
2823.96	11854.2
2825.28	11853.2
2826.6	11842.9
2827.93	11876.5
2829.25	11959.7
2830.57	11936.9
2831.9	11994.5
2833.22	12027.6
2834.54	12113
2835.86	12169.3
2837.19	12334.6
2838.51	12431
2839.83	12694.9
2841.15	12915.2
2842.47	13183.4
2843.79	13506.3
2845.11	13737.3
2846.43	13936.8
2847.75	14126.4
2849.07	14187.3
2850.39	14167.9
2851.71	14081.4
2853.03	14099.7
2854.35	13987.3
2855.66	13914.2
2856.98	13821.6
2858.3	13752.1
2859.62	13743.7
2860.94	13581.9
2862.25	13556.7
2863.57	13585.4
2864.89	13546.5
2866.2	13578.6
2867.52	13617.5
2868.84	13688.6
2870.15	13729.9
2871.47	13722.8
2872.78	13778.3
2874.1	13790.6
2875.41	13815.8
2876.73	13859.7
2878.04	13896.2
2879.36	13854.2
2880.67	13915.7
2881.98	13925.4
2883.3	13999.1
2884.61	14104.4
2885.92	14058.6
2887.24	14116.1
2888.55	14103.8
2889.86	14069.9
2891.18	14167.5
2892.49	14125.4
2893.8	14116.6
2895.11	14072.4
2896.42	14100.8
2897.73	14051.2
2899.04	14067.8
2900.35	14072.7
2901.67	14042.3
2902.97	14013.7
2904.29	13955.1
2905.59	13982.6
2906.9	13956.3
2908.21	13933.8
2909.52	13953.7
2910.83	13946.6
2912.14	13895.5
2913.45	13862.4
2914.76	13912.5
2916.06	13875.1
2917.37	13893.9
2918.68	13878.7
2919.99	13919.4
2921.29	13849.3
2922.6	13852.4
2923.91	13876.2
2925.21	13879.5
2926.52	13856.6
2927.82	13829
2929.13	13831.8
2930.44	13807
2931.74	13729.3
2933.05	13790.1
2934.35	13652.1
2935.65	13610.6
2936.96	13545.5
2938.26	13409.7
2939.57	13259.4
2940.87	13108.9
2942.17	13004.3
2943.48	12832.6
2944.78	12678.7
2946.08	12590
2947.38	12504.4
2948.69	12427
2949.99	12394.1
2951.29	12355.4
2952.59	12310.1
2953.89	12235.1
2955.19	12213.9
2956.49	12206.3
2957.8	12208.9
2959.1	12107.8
2960.4	12066.9
2961.7	12008.9
2962.99	12011
2964.29	11879.2
2965.59	11864.4
2966.89	11793.3
2968.19	11734.5
2969.49	11714.5
2970.79	11616.7
2972.09	11576.9
2973.38	11477.4
2974.68	11427.1
2975.98	11463.5
2977.28	11390.8
2978.57	11355.7
2979.87	11340.4
2981.17	11314
2982.46	11297.5
2983.76	11226.2
2985.05	11177.7
2986.35	11116.9
2987.65	11102.1
2988.94	11099.8
2990.24	11039.3
2991.53	11051.8
2992.82	11037.6
2994.12	10999.2
2995.41	11011.9
2996.71	10935.8
2998	10909.3
2999.29	10929.8
3000.59	10901.6
3001.88	10915.7
3003.17	10891.5
3004.47	10880.6
3005.76	10847.6
3007.05	10854.4
3008.34	10818.7
3009.63	10795.4
3010.92	10766.1
3012.21	10682.1
3013.5	10751.5
3014.8	10709
3016.09	10708.1
3017.38	10658
3018.67	10584.5
3019.96	10657.9
3021.25	10651.8
3022.54	10598.8
3023.82	10618.3
3025.11	10568.7
3026.4	10536.6
3027.69	10584.4
3028.98	10490.5
3030.27	10480.9
3031.55	10548.9
3032.84	10509.6
3034.13	10512.8
3035.42	10476.9
3036.7	10521.5
3037.99	10465.4
3039.28	10523.8
3040.56	10526.8
3041.85	10527.8
3043.13	10546.1
3044.42	10567.6
3045.7	10494.9
3046.99	10535.9
3048.27	10524.3
3049.56	10549
3050.84	10542.8
3052.13	10523.2
3053.41	10542.3
3054.69	10600.3
3055.98	10522
3057.26	10604.9
3058.54	10546.7
3059.83	10526.1
3061.11	10558.3
3062.39	10577.5
3063.67	10575.6
3064.95	10640.6
3066.24	10659.2
3067.52	10580
3068.8	10586.4
3070.08	10596.7
3071.36	10595.5
3072.64	10582
3073.92	10621.5
3075.2	10621
3076.48	10602.2
3077.76	10596.5
3079.04	10589.2
3080.32	10614.2
3081.6	10612.5
3082.88	10587.2
3084.16	10600.9
3085.44	10641.1
3086.71	10614.3
3087.99	10646.4
3089.27	10701.2
3090.55	10665.7
3091.82	10651.8
3093.1	10648.5
3094.38	10694.1
3095.65	10675.5
3096.93	10666.2
3098.21	10730
3099.48	10681.3
3100.76	10705.9
3102.03	10759
3103.31	10720.7
3104.58	10759.3
3105.86	10780.6
3107.13	10775.7
3108.41	10836.5
3109.68	10826.3
3110.96	10875.6
3112.23	10830.3
3113.5	10850.8
3114.78	10928.2
3116.05	10883.2
3117.32	10918.7
3118.59	10927.9
3119.87	10986
3121.14	10956.9
3122.41	10987.4
3123.68	10989.5
3124.95	11013.4
3126.23	11064.6
3127.5	11032.8
3128.77	11084.5
3130.04	11124.7
3131.31	11148.9
3132.58	11158.9
3133.85	11157.3
3135.12	11192.9
3136.39	11200.7
3137.66	11213.7
3138.93	11249.8
3140.2	11230.5
3141.46	11219.8
3142.73	11265.4
3144	11297.6
3145.27	11292.6
3146.54	11365.7
3147.8	11351
3149.07	11421.6
3150.34	11368.1
3151.6	11432
3152.87	11446.4
3154.14	11454.4
3155.4	11494.4
3156.67	11477.7
3157.94	11524
3159.2	11520.2
3160.47	11598.3
3161.73	11517.9
3163	11584.6
3164.26	11552.7
3165.53	11624.1
3166.79	11602.9
3168.05	11626.4
3169.32	11622.4
3170.58	11642.9
3171.84	11571.8
3173.11	11592.1
3174.37	11564.9
3175.63	11617.3
3176.9	11565.1
3178.16	11556.3
3179.42	11566.6
3180.68	11556.2
3181.94	11548.9
3183.21	11539.7
3184.47	11548.9
3185.73	11566.8
3186.99	11521.6
3188.25	11536.2
3189.51	11539.2
3190.77	11509.7
3192.03	11507.6
3193.29	11518
3194.55	11453.5
3195.81	11486.6
3197.07	11503.6
3198.33	11476.5
3199.58	11459.8
3200.84	11474.9
3202.1	11458.7
3203.36	11467.3
3204.62	11479.6
3205.87	11446.9
3207.13	11452.6
3208.39	11419.3
3209.65	11401.4
3210.9	11335.3
3212.16	11342.8
3213.41	11344.5
3214.67	11329.7
3215.93	11324.3
3217.18	11290
3218.44	11322.9
3219.69	11271.9
3220.95	11290.4
3222.2	11307.6
3223.46	11248.8
3224.71	11269.8
3225.97	11249.5
3227.22	11230.1
3228.47	11195
3229.73	11209.1
3230.98	11202.1
3232.23	11172.9
3233.48	11162.2
3234.74	11103.4
3235.99	11140.3
3237.24	11124.1
3238.49	11095.3
3239.75	11083.7
3241	11074.3
3242.25	11052.1
3243.5	11046.2
3244.75	11019
3246	11009.4
3247.25	11018.9
3248.5	10954.1
3249.75	10989.2
3251	10939.6
3252.25	10892.6
3253.5	10917.8
3254.75	10897.1
3256	10866.7
3257.25	10819.7
3258.49	10817.3
3259.74	10774.6
3260.99	10806
3262.24	10772.4
3263.49	10752.2
3264.73	10718.1
3265.98	10715.9
3267.23	10712.4
3268.47	10690.4
3269.72	10704.7
3270.97	10640
3272.21	10681.8
3273.46	10645.9
3274.7	10647.4
3275.95	10608.1
3277.2	10566.4
3278.44	10578.1
3279.69	10567.2
3280.93	10542.8
3282.17	10512.9
3283.42	10514.3
3284.66	10478.2
3285.91	10494.6
3287.15	10470.8
3288.39	10453.2
3289.64	10428.9
3290.88	10415.3
3292.12	10386.4
3292.31	10373.5
3293.56	10364.8
3294.8	10348.1
3296.05	10368.1
3297.3	10320.6
3298.55	10366.5
3299.79	10350
3301.04	10313.2
3302.29	10334.4
3303.54	10306.1
3304.78	10283.1
3306.03	10276.6
3307.27	10254.7
3308.52	10254.5
3309.76	10259.3
3311.01	10244.5
3312.26	10267.6
3313.5	10199.9
3314.75	10193.5
3315.99	10174.7
3317.23	10215.9
3318.48	10132.6
3319.72	10184.8
3320.97	10117.3
3322.21	10166.8
3323.45	10145.9
3324.7	10196.7
3325.94	10126.5
3327.18	10122.6
3328.42	10139
3329.67	10098.3
3330.91	10085.4
3332.15	10101.5
3333.39	10039.9
3334.63	10102.8
3335.87	10071.1
3337.12	10044.9
3338.36	10060.7
3339.6	10008.9
3340.84	10017.8
3342.08	10022.7
3343.32	9971.28
3344.56	9985.29
3345.8	9983.25
3347.04	9972.04
3348.27	9953.65
3349.51	9940.77
3350.75	9909.43
3351.99	9943.8
3353.23	9882.08
3354.47	9895.46
3355.7	9867.51
3356.94	9882.06
3358.18	9871.87
3359.42	9871.08
3360.65	9851.21
3361.89	9867.11
3363.13	9849.56
3364.36	9850.51
3365.6	9836.41
3366.83	9805.04
3368.07	9821.86
3369.31	9834.55
3370.54	9789.65
3371.78	9778.07
3373.01	9820.21
3374.25	9790.51
3375.48	9793.35
3376.71	9760.45
3377.95	9775.12
3379.18	9747.78
3380.42	9771.1
3381.65	9749.14
3382.88	9726.71
3384.12	9717.63
3385.35	9684.34
3386.58	9700.03
3387.81	9691.67
3389.04	9685.17
3390.28	9656.4
3391.51	9671.84
3392.74	9614.9
3393.97	9634.93
3395.2	9653.35
3396.43	9673.87
3397.67	9635.11
3398.9	9582.54
3400.13	9575.85
3401.36	9596.17
3402.58	9568.52
3403.82	9587.08
3405.05	9551.02
3406.27	9529.47
3407.5	9493.33
3408.73	9487.14
3409.96	9491.96
3411.19	9486.49
3412.42	9478.88
3413.64	9447.35
3414.87	9425.33
3416.1	9416.62
3417.33	9396.08
3418.55	9380.14
3419.78	9374.42
3421.01	9401.46
3422.23	9372.78
3423.46	9388.02
3424.69	9308.41
3425.91	9312.38
3427.14	9275.16
3428.36	9288.02
3429.59	9246.67
3430.81	9249.24
3432.04	9205.45
3433.26	9198.12
3434.49	9183.8
3435.71	9186.73
3436.94	9176.01
3438.16	9140.85
3439.39	9136.65
3440.61	9096.13
3441.83	9101.06
3443.05	9055.6
3444.28	9064.78
3445.5	9069.37
3446.72	9008.35
3447.95	8935
3449.17	8953.79
3450.39	8953.99
3451.61	8924.02
3452.83	8897.39
3454.05	8916.31
3455.27	8912.12
3456.5	8894.24
3457.71	8824.68
3458.94	8830.02
3460.16	8790.19
3461.38	8746.54
3462.59	8723.67
3463.81	8741.01
3465.03	8685.71
3466.25	8679.01
3467.47	8655.69
3468.69	8649.87
3469.91	8642.44
3471.13	8602.55
3472.35	8532.89
3473.56	8570.37
3474.78	8474.82
3476	8473.15
3477.22	8458.9
3478.43	8432.38
3479.65	8422.66
3480.87	8388.74
3482.08	8337.88
3483.3	8325.62
3484.52	8272.31
3485.73	8293.49
3486.95	8246.81
3488.16	8240.92
3489.38	8202.45
3490.59	8162.51
3491.81	8188.15
3493.02	8129.42
3494.24	8118.27
3495.45	8122.01
3496.67	8025.68
3497.88	8020.84
3499.09	7977.39
