#Acq. time (s)=	10
#Accumulations=	10
#Range (cm-¹)=	400...3500
#Windows=	3
#Auto scanning=	Off
#Autofocus=	Off
#AutoExposure=	Off
#Spike filter=	Multiple accum.
#Delay time (s)=	0
#Binning=	1
#Readout mode=	Signal
#DeNoise=	Off
#ICS correction=	On
#Dark correction=	Off
#Inst. Process=	Off
#Detector Gain=	Best Dynamic Range
#Detector ADC=	45 kHz       
#Detector temperature (°C)=	-60.1
#Instrument=	LabRAM HR Evol
#Detector=	Syncerity OE
#Objective=	x50_VIS_LWD
#Grating=	600 (500nm)
#ND Filter=	50%
#Laser=	532nm_Edge
#Hole=	199.981
#Range=	Visible
#E-Cal_Neon=	0
#StageXY=	75x50mm Scan+
#StageZ=	Z motor
#X (µm)=	0
#Y (µm)=	0
#Z (µm)=	693.1
#Spectral res.(cm-¹)=	12.8
#Full time(mm:ss)=	5:19
#AC=	Calibrated 2025-07-01 10:31
#Project=	
#Sample=	
#Site=	
#Title=	D_1
#Remark=	
#Date=	01.07.2025 17:02 (India Standard Time)
#Acquired=	01.07.2025 17:02:22 (India Standard Time)
#AxisType[0]=Intens
#AxisUnit[0]=Cnt
#AxisType[1]=Spectr
#AxisUnit[1]=1/cm
400.083	28687.2
401.858	28571.3
403.63	28490.5
405.405	28612.9
407.176	28564.8
408.949	28513.8
410.72	28593.7
412.493	28580
414.263	28620.3
416.033	28650.5
417.805	28728.9
419.574	28613.5
421.345	28606.8
423.114	28613.8
424.884	28637.8
426.652	28739.2
428.421	28707.3
430.188	28697.7
431.955	28675.1
433.724	28721.5
435.49	28784.7
437.258	28641.3
439.023	28627.9
440.788	28684.3
442.555	28639.2
444.32	28748.7
446.084	28710
447.85	28675.8
449.613	28608.9
451.376	28565.9
453.141	28601.8
454.904	28670.6
456.666	28699.8
458.429	28660.3
460.191	28624.4
461.952	28593.4
463.715	28614.5
465.475	28583.2
467.235	28581.2
468.995	28603.6
470.756	28664.4
472.515	28566.6
474.274	28620.6
476.032	28635.1
477.793	28668.8
479.55	28619.8
481.308	28620.9
483.065	28650.3
484.823	28668.8
486.58	28767.5
488.336	28684.7
490.091	28732.9
491.847	28686.8
493.604	28741.8
495.358	28687.7
497.113	28732.3
498.867	28745.4
500.62	28864.4
502.374	28903.7
504.127	28823.4
505.881	28975.9
507.634	28990.3
509.386	28973.4
511.137	28942.3
512.888	29002.5
514.639	28996.2
516.39	29011.2
518.14	28908.5
519.89	28885
521.642	28849.8
523.391	28904.9
525.14	28840.5
526.889	28891.4
528.637	28789.7
530.385	28921.4
532.133	28893.1
533.88	28867
535.627	28840.1
537.373	28791.9
539.12	28871.3
540.866	28784.6
542.611	28737.3
544.357	28765.2
546.101	28680.7
547.846	28768.2
549.59	28721.1
551.334	28727.2
553.078	28797.2
554.821	28806.2
556.564	28811.2
558.307	28740.7
560.049	28730.6
561.789	28877.7
563.53	28829.8
565.272	28882.8
567.013	28869
568.753	28927.3
570.494	28880
572.233	28932.9
573.973	28916.3
575.712	29030.9
577.449	28981.1
579.188	29093.4
580.926	29092.6
582.664	29088.2
584.402	29172.2
586.139	29079.6
587.876	29173
589.611	29246.4
591.347	29187.2
593.083	29278.4
594.818	29187.4
596.554	29271.6
598.287	29285.9
600.021	29197
601.756	29333.7
603.49	29470.8
605.221	29381.1
606.955	29354.9
608.688	29330.9
610.42	29226.2
612.15	29191.2
613.882	29176.5
615.614	29204
617.345	29192.8
619.074	29193.8
620.805	29101.3
622.535	29022.8
624.263	29023.1
625.993	29022.4
627.722	29026.7
629.45	29065
631.178	29003.7
632.907	29054.8
634.633	29049.7
636.36	29061.5
638.088	29129.1
639.813	29162.5
641.539	29172
643.264	29088.2
644.99	29057.2
646.716	29100.7
648.439	28993.1
650.164	29130.1
651.887	29041.5
653.611	29017.1
655.335	29015
657.057	28975
658.781	29120.4
660.502	29101.7
662.225	29076.7
663.945	29071.4
665.667	29177.5
667.387	29076.2
669.108	29062.1
670.828	29088.1
672.548	29129.2
674.267	29125.5
675.987	29131.2
677.705	29122.6
679.424	29135.1
681.142	29124.6
682.86	29199.1
684.577	29126.8
686.293	29212.9
688.011	29340.1
689.727	29252.9
691.444	29260.4
693.159	29305.6
694.875	29366.9
696.59	29342.8
698.304	29384.4
700.019	29405
701.733	29382.7
703.448	29392.1
705.16	29464.7
706.872	29361.9
708.586	29354.3
710.298	29406.4
712.01	29338.2
713.723	29334.7
715.433	29422.7
717.144	29377.7
718.856	29502.3
720.565	29563.4
722.275	29560.6
723.984	29531.8
725.695	29537.6
727.403	29477.4
729.111	29591.5
730.821	29565.8
732.528	29569.6
734.235	29520.6
735.942	29574.5
737.651	29600.2
739.357	29574.7
741.063	29533.3
742.768	29531
744.474	29555.7
746.18	29618.7
747.885	29602.6
749.589	29686.8
751.293	29762.2
752.997	29639.6
754.702	29723
756.405	29812.3
758.108	29835.9
759.81	29891.6
761.512	29834
763.214	29800.7
764.915	29909.7
766.618	29864.7
768.319	29955.8
770.019	29885.5
771.719	29940.1
773.419	30014
775.118	29995.5
776.817	30012.9
778.516	30009.2
780.214	30030.8
781.913	29980.5
783.61	30053.6
785.308	29968.3
787.005	29952
788.702	30012
790.398	30024
792.095	30061.6
793.791	30030.4
795.486	30105.8
797.181	30148.4
798.876	30187.5
800.571	30193.4
802.265	30246
803.959	30382.1
805.653	30377.6
807.346	30283.8
809.039	30257.4
810.732	30372.2
812.424	30319.2
814.116	30370.4
815.808	30469.6
817.5	30549.4
819.191	30640.2
820.881	30700.5
822.572	30854.4
824.26	30957.2
825.95	30916.7
827.639	31038.2
829.329	31055
831.018	31180.6
832.706	31152.2
834.394	31213.8
836.08	31315.4
837.768	31322.3
839.455	31344.8
841.142	31432.6
842.829	31514.2
844.513	31529.9
846.199	31617.8
847.885	31571.4
849.57	31679.1
851.255	31604.6
852.938	31655.2
854.623	31693.1
856.307	31688.7
857.991	31885.1
859.672	32031
861.355	32030.6
863.038	32085.8
864.719	32029.9
866.401	32059
868.083	32023.2
869.765	32068.3
871.444	32002.9
873.125	32083.1
874.806	32073.3
876.484	32065.1
878.164	31958.7
879.844	31887.9
881.521	31970.8
883.2	31981.2
884.877	31933.9
886.555	31937.5
888.234	31949.6
889.909	31903.8
891.587	31693.7
893.262	31652.6
894.939	31635.7
896.616	31450.3
898.29	31506.1
899.966	31367.4
901.64	31226.9
903.315	31262.2
904.988	31224.1
906.663	31208
908.335	31262.2
910.009	31344.6
911.683	31196
913.354	31395.9
915.027	31354.1
916.698	31381.9
918.369	31342.6
920.041	31360.8
921.711	31223.6
923.383	31301.9
925.052	31174.3
926.723	31100.7
928.391	31143.5
930.062	31041.7
931.73	30993.5
933.399	30983.6
935.067	31008.5
936.734	30966.3
938.403	30983.2
940.069	31121.3
941.737	31100.6
943.403	31027.7
945.069	31109.2
946.736	31115.7
948.401	31064.4
950.065	31068.6
951.732	31159
953.396	31149
955.059	31162.8
956.725	31137.7
958.388	31212.2
960.051	31259
961.715	31252.1
963.377	31222.7
965.039	31359.1
966.7	31280.3
968.364	31317.3
970.025	31170.5
971.685	31198
973.345	31222.6
975.007	31241.8
976.667	31122.6
978.326	31157.7
979.985	31160.6
981.646	31224.6
983.304	31208.1
984.963	31294.8
986.62	31336.8
988.278	31364
989.935	31521.3
991.594	31558.1
993.25	31628.4
994.907	31889.8
996.563	32068.9
998.218	32321.8
999.874	32389.9
1001.53	32414.8
1003.19	32260.3
1004.84	32200.3
1006.49	32108
1008.15	31988.7
1009.8	31967.1
1011.45	32000.4
1013.11	31912.8
1014.76	31972.3
1016.41	31910.4
1018.06	31977.1
1019.72	31902.6
1021.37	31943.2
1023.02	31893.6
1024.67	31988.6
1026.32	31822.1
1027.97	31865.7
1029.62	31920.2
1031.27	31808.7
1032.92	31930
1034.57	31830.8
1036.22	31927.2
1037.86	31859.3
1039.51	31906.6
1041.16	31894.1
1042.81	31878.8
1044.45	31962.9
1046.1	31951.5
1047.75	32126.6
1049.39	32160.1
1051.04	32298
1052.68	32466.5
1054.33	32726.8
1055.97	33055.8
1057.62	33227.1
1059.26	33352.5
1060.91	33343.1
1062.55	33254.2
1064.19	33161.6
1065.83	33031.2
1067.48	33095.9
1069.12	33085.8
1070.76	33084.7
1072.4	33253.4
1074.04	33302.8
1075.68	33372.4
1077.32	33364.6
1078.97	33327
1080.61	33275.5
1082.24	33267.8
1083.88	33086
1085.52	33058.1
1087.16	33019.9
1088.8	32941.4
1090.44	32796.9
1092.08	32622.1
1093.71	32574.8
1095.35	32385.5
1096.99	32339.8
1098.62	32136.1
1100.26	32200.2
1101.9	32043.3
1103.53	32008.2
1105.17	31975
1106.8	32060.3
1108.44	32103.4
1110.07	32140.1
1111.7	32334.6
1113.34	32441.5
1114.97	32552.7
1116.6	32602.6
1118.23	32704.1
1119.87	32911.8
1121.5	32848.4
1123.13	32858.3
1124.76	32910.7
1126.39	32547.3
1128.03	32357.1
1129.65	32024.3
1131.29	31901.6
1132.91	31820.3
1134.54	31814.5
1136.17	31766
1137.8	31853.5
1139.43	31942.7
1141.06	32039.5
1142.69	32294.5
1144.31	32570.6
1145.94	32734.9
1147.57	33186.5
1149.19	33601.7
1150.82	34072.6
1152.45	34339.3
1154.07	34294.1
1155.7	34041.9
1157.32	33555
1158.95	32968.7
1160.57	32542.5
1162.2	32223.4
1163.82	32076.5
1165.44	31828.3
1167.07	31928.9
1168.69	31795.2
1170.31	31802.3
1171.94	31750.9
1173.56	31644.5
1175.18	31603.6
1176.8	31649.1
1178.42	31670.5
1180.04	31627.1
1181.66	31705.8
1183.28	31676.1
1184.9	31778.7
1186.52	31741.5
1188.14	31795.9
1189.76	31723.4
1191.38	31688.6
1192.99	31732.3
1194.61	31685.1
1196.23	31596.5
1197.85	31610.5
1199.46	31440.3
1201.08	31512.6
1202.7	31503.7
1204.31	31516.9
1205.93	31555.2
1207.54	31458
1209.16	31550.7
1210.78	31511.9
1212.39	31454.4
1214	31407.3
1215.62	31423
1217.23	31345.4
1218.84	31360.8
1220.46	31411
1222.07	31495.5
1223.68	31478.2
1225.29	31403.4
1226.91	31568.4
1228.52	31591.8
1230.13	31660
1231.74	31666.9
1233.35	31741.5
1234.96	31768.1
1236.57	31802.4
1238.18	31892.6
1239.79	31837.8
1241.4	32149.1
1243	32123.7
1244.61	32269.5
1246.22	32364.2
1247.83	32510.2
1249.43	32474.4
1251.04	32524
1252.65	32552.4
1254.25	32745.2
1255.86	32659.5
1257.47	32620.5
1259.07	32822.4
1260.68	32861
1262.28	32901.9
1263.89	32945.5
1265.49	32902.1
1267.09	32917.5
1268.7	32781
1270.3	32852.8
1271.9	32786.9
1273.51	32748.1
1275.11	32725.1
1276.71	32825.7
1278.31	32780.2
1279.91	32888.1
1281.52	32969.5
1283.12	33023.9
1284.72	33316.1
1286.32	33465.1
1287.92	33737.4
1289.52	34092.7
1291.12	34543.6
1292.72	34814
1294.31	35001.4
1295.91	35129.6
1297.51	35165.8
1299.11	35125.5
1300.71	34950.7
1302.3	34862.7
1303.9	34528.8
1305.5	34449.9
1307.09	34171
1308.69	33950.5
1310.28	33873.1
1311.88	33468.6
1313.47	33286.1
1315.07	33022.7
1316.66	32876.8
1318.26	32770.3
1319.85	32629.8
1321.44	32408.1
1323.04	32409.3
1324.63	32312.5
1326.22	32202.8
1327.82	32172.2
1329.41	32179.3
1331	32063.5
1332.59	32122
1334.18	32046.2
1335.77	32070.8
1337.36	32038.8
1338.95	32138.7
1340.54	32074.2
1342.13	31951.2
1343.72	31918.3
1345.31	31906.9
1346.9	31927.3
1348.49	32074.7
1350.07	31957.4
1351.66	31885.8
1353.25	31870.4
1354.84	31805
1356.42	31760.4
1358.01	31802
1359.6	31778.8
1361.18	31750.6
1362.77	31834.9
1364.35	31806.1
1365.94	31904.7
1367.52	31848.8
1369.11	31841.9
1370.69	31692.2
1372.28	31627.7
1373.86	31579
1375.44	31409.5
1377.02	31358
1378.61	31447.1
1380.19	31332.1
1381.77	31276.3
1383.35	31244
1384.93	31315.6
1386.52	31326.6
1388.1	31405.3
1389.68	31467.6
1391.26	31477
1392.84	31401.9
1394.41	31471.6
1396	31433.3
1397.57	31447.9
1399.15	31462.1
1400.73	31619.7
1402.31	31560.2
1403.89	31724.3
1405.46	31686
1407.04	31836.3
1408.62	31925.5
1410.19	32129.6
1411.77	32327.3
1413.35	32434.1
1414.92	32518.7
1416.5	32758
1418.07	32855.5
1419.65	32997.7
1421.22	33127.3
1422.8	33443.2
1424.37	33828
1425.94	34330.4
1427.52	34882.8
1429.09	35498.6
1430.66	36247.9
1432.23	36862.8
1433.8	37361.2
1435.38	37602.7
1436.95	37709.5
1438.52	37543.9
1440.09	37390.2
1441.66	37122.8
1443.23	36857.3
1444.8	36686.6
1446.37	36562.6
1447.94	36423.2
1449.51	36319
1451.08	36068.6
1452.65	36023.4
1454.22	35806
1455.78	35660.6
1457.35	35391.3
1458.92	35300.4
1460.48	34923.6
1462.05	34648.7
1463.62	34334.6
1465.18	33970.6
1466.75	33602.8
1468.31	33258
1469.88	33063.2
1471.44	32678.9
1473.01	32408.9
1474.57	32229.2
1476.14	32021.2
1477.7	31916.6
1479.26	31752.6
1480.83	31709.5
1482.39	31563.3
1483.95	31487.5
1485.51	31518.5
1487.08	31409.7
1488.64	31540.6
1490.2	31449.6
1491.76	31650.6
1493.32	31586.6
1494.88	31773.7
1496.44	31713.6
1498	31775.5
1499.56	31894.2
1501.12	31945.7
1502.68	32028.4
1504.24	32149.6
1505.8	32379.7
1507.35	32471.8
1508.91	32744.7
1510.47	33029.1
1512.03	33194.7
1513.58	33593.5
1515.14	33735.3
1516.69	33930.4
1518.25	33944.7
1519.81	33990.2
1521.36	33889.8
1522.92	33735.2
1524.47	33434.8
1526.03	33067
1527.58	32715.1
1529.13	32378.2
1530.69	31998.1
1532.24	31794.6
1533.79	31659.7
1535.35	31456.6
1536.9	31364.3
1538.45	31351
1540	31325.1
1541.55	31298.3
1543.11	31234.5
1544.66	31132.7
1546.21	31197.4
1547.76	31080.8
1549.31	31025.2
1550.86	31047.2
1552.41	31057.3
1553.96	31051.2
1555.5	30991.3
1557.05	30957.5
1558.6	31043.8
1560.15	31011.9
1561.7	31087.1
1563.24	31052.2
1564.79	31151.9
1566.34	31110.1
1567.88	31137.8
1569.43	31148.9
1570.98	31174.5
1572.52	31122
1574.07	31200.1
1575.61	30992.7
1577.16	31139.7
1578.7	31139.7
1580.25	31100.3
1581.79	31299.4
1583.34	31158.2
1584.88	31205.9
1586.42	31183.1
1587.96	31251
1589.51	31186.7
1591.05	31220.1
1592.59	31174.9
1594.13	31203.4
1595.67	31171.3
1597.21	31319.7
1598.76	31276.7
1600.3	31425.1
1601.83	31353
1603.37	31282.9
1604.92	31220.2
1606.45	31262.7
1607.99	31286.6
1609.53	31261.4
1611.07	31150.6
1612.61	31173.7
1614.15	31157.9
1615.68	31222.7
1617.22	31253.5
1618.76	31228.2
1620.29	31149.5
1621.83	31234.2
1623.37	31240.7
1624.9	31262.3
1626.44	31339.8
1627.97	31403.6
1629.51	31430.4
1631.04	31552.1
1632.58	31631.6
1634.11	31644.7
1635.64	31664.7
1637.18	31736.4
1638.71	31945.7
1640.24	32153
1641.78	32312
1643.31	32581.1
1644.84	33021.1
1646.37	33453.2
1647.9	33973.2
1649.44	34244.6
1650.97	34164.1
1652.5	34146
1654.03	33907.6
1655.56	33478
1657.09	33008.6
1658.62	32691.6
1660.14	32352.2
1661.67	32193.1
1663.2	32047
1664.73	32018.1
1666.26	31980.7
1667.79	31792.7
1669.31	31690.6
1670.84	31575.2
1672.37	31435.5
1673.89	31395.5
1675.42	31265.7
1676.95	31119.1
1678.47	31063.5
1680	31053.5
1681.52	31078.7
1683.05	30899.4
1684.57	30854.9
1686.1	30777.1
1687.62	30730.3
1689.14	30730.1
1690.67	30805.3
1692.19	30736.5
1693.71	30771.8
1695.23	30664
1696.76	30636.1
1698.28	30600.4
1699.8	30492.5
1701.32	30521.9
1702.84	30451.5
1704.36	30503.6
1705.88	30459.9
1707.4	30500.1
1708.92	30385.8
1710.44	30544.8
1711.96	30516.3
1713.48	30471
1715	30551.5
1716.52	30435.3
1718.04	30463.5
1719.56	30526.4
1721.07	30635.4
1722.59	30679.7
1724.11	30705.9
1725.63	30725.6
1727.14	30803.9
1728.66	30899.8
1730.17	31031.1
1731.69	31106.4
1733.2	31123.5
1734.72	31319.7
1736.23	31408.1
1737.75	31551
1739.26	31659.3
1740.78	31607.3
1742.29	31729.6
1743.8	31582.5
1745.32	31515.3
1746.83	31402.7
1748.34	31466.7
1749.86	31287.4
1751.37	31125.6
1752.88	30971.1
1754.39	30795.8
1755.9	30609.1
1757.41	30495.3
1758.92	30448.8
1760.43	30409.5
1761.94	30326.6
1763.45	30328.4
1764.96	30214.7
1766.47	30227.5
1767.98	30228.8
1769.49	30216.2
1771	30204.4
1772.5	30284.2
1774.01	30209.2
1775.52	30169
1777.03	30205.7
1778.53	30177.3
1780.04	30156.9
1781.55	30205.1
1783.05	30023.4
1784.56	30159.7
1786.06	30150.9
1787.57	30191.7
1789.07	30283.1
1790.58	30149.9
1792.08	30097.4
1793.59	30148.4
1795.09	30227.6
1796.59	30172.1
1798.1	30097.7
1799.6	30088.6
1801.1	30100.3
1802.61	30102.8
1804.11	30129.6
1805.61	30090.2
1807.11	30070.5
1808.61	30128.9
1810.11	30205.9
1811.61	30101.4
1813.11	30170.2
1814.61	30112.3
1816.11	30075.6
1817.61	30031.7
1819.11	30143.8
1820.61	29990.2
1822.11	30008.5
1823.61	30073.1
1825.11	30060.1
1826.6	30060.9
1828.1	30044.5
1829.6	30030.3
1831.1	30079.2
1832.59	30017.7
1834.09	30056.5
1835.59	29953
1837.08	30049.4
1838.58	30088.2
1840.07	29997.7
1841.57	30037
1843.06	30023.9
1844.56	30128
1846.05	30137.4
1847.54	30125
1849.04	30015
1850.53	30100.3
1852.02	29993.4
1853.52	29994.9
1855.01	29975
1856.5	29947.4
1857.99	30106.6
1859.49	30018
1860.98	29966.4
1862.47	29919.2
1863.96	29994.9
1865.45	30011
1866.94	30033.7
1868.43	30003.5
1869.92	29988.2
1871.41	30069.8
1872.9	29937.2
1874.39	30022.2
1875.88	30010.2
1877.37	30036.5
1878.85	29934.1
1880.34	29944.6
1881.83	29989.6
1883.32	29901.4
1884.8	29961.7
1886.29	29871.2
1887.78	29788.3
1889.26	29959.7
1890.75	29923.3
1892.23	29892.3
1893.72	29905.9
1895.21	29865.7
1896.69	29834.6
1898.17	29774.7
1899.66	29711.8
1901.14	29677.7
1902.63	29612
1904.11	29562.6
1905.59	29506.4
1907.08	29489.3
1908.56	29400.8
1910.04	29435.7
1911.52	29313.4
1913	29294
1914.49	29297.8
1915.97	29194.3
1917.45	29042.6
1918.93	29048.6
1920.41	29006.2
1921.89	28908.3
1923.37	28881.7
1924.85	28768.5
1926.33	28834.6
1927.81	28761.3
1929.29	28758.7
1930.76	28609.1
1932.24	28649.9
1933.72	28537.8
1935.2	28527.3
1936.67	28391.3
1938.15	28362.3
1939.63	28291.1
1941.1	28250.2
1942.58	28232.2
1944.06	28198.4
1945.53	28210.9
1947.01	28072.4
1948.48	28020.7
1949.96	27935
1951.43	27839.6
1952.91	27813.4
1954.38	27757.3
1955.86	27632.7
1957.33	27549.1
1958.8	27559.8
1960.27	27530.8
1961.75	27422.6
1963.22	27425.9
1964.69	27367
1966.16	27274.3
1967.64	27285.5
1969.11	27258.2
1970.58	27164
1972.05	27159.7
1973.52	27117.9
1974.99	27061.9
1976.46	27017.1
1977.93	26968.5
1979.4	26951
1980.87	26864
1982.34	26791
1983.81	26820.2
1985.27	26755.1
1986.74	26716.3
1988.21	26637.4
1989.68	26609
1991.14	26511.6
1992.61	26443.3
1994.08	26343.8
1995.55	26292
1997.01	26299.5
1998.48	26216.3
1999.94	26197.4
2001.41	26114.6
2002.87	26028.1
2004.34	26020.7
2005.8	25957.7
2007.27	25961.1
2008.73	25924
2010.19	25849.1
2011.66	25892.8
2013.12	25841.3
2014.58	25786.1
2016.05	25727.7
2017.51	25679.5
2018.97	25609.7
2020.43	25603.2
2021.89	25518.2
2023.36	25468.3
2024.82	25413.7
2026.28	25378.2
2027.74	25286.9
2029.2	25284.2
2030.66	25268.6
2032.12	25223.2
2033.58	25165.9
2035.04	25121.3
2036.49	25104.8
2037.95	25093.1
2039.41	25001.6
2040.87	24945.7
2042.33	24954.8
2043.78	24888.7
2045.24	24873.7
2045.76	24879
2047.22	24833.9
2048.69	24858
2050.15	24801.4
2051.61	24830.8
2053.07	24814.1
2054.54	24799.6
2056	24748.3
2057.46	24781
2058.92	24759.6
2060.38	24795.4
2061.84	24694.6
2063.3	24660.3
2064.76	24677.7
2066.22	24718.4
2067.68	24706.8
2069.14	24713.8
2070.6	24688.3
2072.06	24734.3
2073.52	24663.6
2074.98	24611.3
2076.44	24560.9
2077.89	24610.1
2079.35	24615.3
2080.81	24619.2
2082.27	24630.7
2083.72	24526
2085.18	24660.3
2086.63	24611.1
2088.09	24469.6
2089.55	24530.2
2091	24563
2092.46	24483.7
2093.91	24443.3
2095.37	24389.7
2096.82	24483.6
2098.28	24433.8
2099.73	24391
2101.18	24391.2
2102.64	24378.7
2104.09	24375.8
2105.54	24407.3
2106.99	24285.2
2108.45	24343.8
2109.9	24349.6
2111.35	24248.9
2112.8	24222.4
2114.25	24291.4
2115.71	24281
2117.16	24237.3
2118.61	24270.9
2120.06	24203.6
2121.51	24347.5
2122.96	24236.9
2124.4	24277.4
2125.85	24286.7
2127.3	24244.7
2128.75	24174.5
2130.2	24143.7
2131.65	24168.5
2133.09	24149.8
2134.54	24157.6
2135.99	24239.8
2137.44	24141
2138.88	24218.7
2140.33	24176.8
2141.78	24092.8
2143.22	24148.1
2144.67	24150.4
2146.11	24097.4
2147.56	24101.5
2149	24116.5
2150.45	24046
2151.89	24083.2
2153.34	24057
2154.78	24106.7
2156.22	24087.3
2157.67	24034.6
2159.11	24069.9
2160.55	24040
2162	24104.1
2163.44	24029.1
2164.88	24024.1
2166.32	24017.8
2167.76	23967.7
2169.2	24108.4
2170.64	23925.1
2172.09	24024.1
2173.53	24026.8
2174.97	24002.4
2176.41	24031.4
2177.85	23927.1
2179.29	23920.2
2180.72	23904.8
2182.16	23968.2
2183.6	23848.9
2185.04	23861.6
2186.48	23811.1
2187.92	23842.7
2189.35	23838.1
2190.79	23806.1
2192.23	23872.9
2193.66	23943
2195.1	23841.9
2196.54	23799.1
2197.97	23848.7
2199.41	23833.3
2200.84	23796.2
2202.28	23804.2
2203.71	23689.9
2205.15	23728.2
2206.58	23766
2208.02	23718
2209.45	23662.5
2210.88	23688.6
2212.32	23651.9
2213.75	23583.2
2215.18	23555.3
2216.62	23530.2
2218.05	23506.9
2219.48	23438.5
2220.91	23493.5
2222.34	23456.9
2223.78	23451
2225.21	23433.5
2226.64	23472.6
2228.07	23369.4
2229.5	23375.1
2230.93	23360
2232.36	23312.8
2233.79	23402.5
2235.22	23401.2
2236.65	23308.4
2238.07	23276.2
2239.5	23241.7
2240.93	23269.3
2242.36	23186.8
2243.79	23253.7
2245.21	23196.7
2246.64	23178.4
2248.07	23135
2249.49	23156.7
2250.92	23162.7
2252.35	23115.1
2253.77	23040.5
2255.2	23047
2256.62	23003.1
2258.05	22994.1
2259.47	22880.5
2260.9	22918.8
2262.32	22912.8
2263.75	22858.8
2265.17	22844
2266.59	22809.7
2268.02	22723
2269.44	22765.4
2270.86	22719.9
2272.29	22749.7
2273.71	22684.3
2275.13	22701.5
2276.55	22705.2
2277.97	22627.9
2279.39	22587.4
2280.81	22551.9
2282.24	22589.7
2283.66	22526.6
2285.08	22516.9
2286.5	22415.1
2287.92	22477.9
2289.34	22526
2290.75	22457.9
2292.17	22515.6
2293.59	22454.1
2295.01	22382.1
2296.43	22350
2297.85	22333.1
2299.26	22338.1
2300.68	22370.1
2302.1	22243.4
2303.51	22225.7
2304.93	22311.4
2306.35	22182.3
2307.76	22199.8
2309.18	22176.2
2310.6	22176.1
2312.01	22231
2313.43	22210.7
2314.84	22113.7
2316.25	22115.6
2317.67	22106.3
2319.08	22097
2320.5	22049.7
2321.91	22020.8
2323.32	22071.3
2324.74	22205.7
2326.15	22250.8
2327.56	22296.9
2328.98	22096.6
2330.39	21913.5
2331.8	21889.7
2333.21	21887.4
2334.62	21807
2336.03	21799.9
2337.44	21798.5
2338.85	21825.5
2340.26	21810.6
2341.67	21811.4
2343.08	21655.5
2344.49	21763.5
2345.9	21722.1
2347.31	21619.4
2348.72	21728.5
2350.13	21657
2351.54	21585.1
2352.94	21541.9
2354.35	21485.1
2355.76	21568.9
2357.17	21457.8
2358.57	21499.1
2359.98	21478.3
2361.39	21546.6
2362.79	21410.7
2364.2	21454.1
2365.6	21381.3
2367.01	21417.6
2368.41	21349.5
2369.82	21465.7
2371.22	21380.3
2372.63	21310.1
2374.03	21357.4
2375.44	21248.7
2376.84	21347.7
2378.24	21232.7
2379.65	21296.3
2381.05	21284.5
2382.45	21239.3
2383.85	21228.9
2385.26	21194.5
2386.66	21218.4
2388.06	21209.5
2389.46	21185.2
2390.86	21193.7
2392.26	21166.4
2393.66	21238.2
2395.06	21141.4
2396.46	21099
2397.86	21077.4
2399.26	21066.5
2400.66	21017.9
2402.06	21095.1
2403.46	21060
2404.86	20980.2
2406.26	20897.1
2407.66	20980.2
2409.05	20992.9
2410.45	20969.5
2411.85	21007
2413.24	21026.9
2414.64	20887.5
2416.04	20903.3
2417.43	20855.1
2418.83	20878
2420.23	20831.2
2421.62	20855.7
2423.02	20884.3
2424.41	20834.7
2425.81	20888.7
2427.2	20785.3
2428.6	20711
2429.99	20760.6
2431.38	20780.2
2432.78	20771
2434.17	20793.9
2435.56	20736.5
2436.96	20690
2438.35	20624.1
2439.74	20670
2441.13	20686.4
2442.53	20739.6
2443.92	20681.3
2445.31	20614.6
2446.7	20609.1
2448.09	20671.3
2449.48	20571.4
2450.87	20560.3
2452.26	20553.6
2453.65	20522.2
2455.04	20530.2
2456.43	20513.7
2457.82	20564.5
2459.21	20493.8
2460.6	20514.2
2461.98	20431.6
2463.37	20518.6
2464.76	20428.1
2466.15	20343.7
2467.53	20406.1
2468.92	20446.4
2470.31	20361.3
2471.7	20354.8
2473.08	20332
2474.47	20330.9
2475.85	20372.2
2477.24	20225
2478.63	20236.6
2480.01	20296
2481.39	20304.6
2482.78	20265.5
2484.16	20263.2
2485.55	20286.3
2486.93	20226.2
2488.32	20237.5
2489.7	20230.7
2491.08	20198.3
2492.46	20222.6
2493.85	20169.9
2495.23	20179.3
2496.61	20062.5
2497.99	20155.6
2499.38	20119.4
2500.76	20085.9
2502.14	20060.3
2503.52	20019.3
2504.9	20033.2
2506.28	20068.9
2507.66	20065.1
2509.04	19985.7
2510.42	19993.3
2511.8	20004.7
2513.18	19944.2
2514.56	19957.8
2515.94	19911.8
2517.31	19882.9
2518.69	19929.1
2520.07	19861
2521.45	19844.2
2522.82	19908.3
2524.2	19869.4
2525.58	19916.2
2526.96	19893
2528.33	19863.1
2529.71	19830.8
2531.09	19813.6
2532.46	19794.6
2533.84	19830.1
2535.21	19793.1
2536.59	19811.8
2537.96	19811.9
2539.34	19710.2
2540.71	19793.5
2542.08	19713.7
2543.46	19718.1
2544.83	19721.1
2546.2	19725.6
2547.58	19640.9
2548.95	19640.3
2550.32	19589
2551.7	19536.7
2553.07	19595.9
2554.44	19592.9
2555.81	19528.2
2557.18	19534.6
2558.55	19607.1
2559.92	19588.2
2561.29	19518
2562.66	19491
2564.03	19543.4
2565.4	19509.5
2566.77	19404.2
2568.14	19451
2569.51	19425.3
2570.88	19412.1
2572.25	19480.8
2573.62	19445
2574.99	19403.3
2576.35	19471.2
2577.72	19444.4
2579.09	19481.6
2580.46	19442
2581.82	19340.3
2583.19	19433.7
2584.56	19439.2
2585.92	19407.1
2587.29	19404.8
2588.65	19446.4
2590.02	19467.8
2591.38	19450.4
2592.75	19377.1
2594.11	19394.6
2595.48	19414.6
2596.84	19415.8
2598.21	19388.5
2599.57	19390.8
2600.93	19298.5
2602.3	19320.4
2603.66	19347.3
2605.02	19314.1
2606.39	19312.7
2607.75	19385.5
2609.11	19264.4
2610.47	19270.1
2611.83	19279.1
2613.19	19247.2
2614.56	19238.6
2615.92	19192.2
2617.28	19247.6
2618.64	19185.3
2620	19189.3
2621.36	19199.9
2622.72	19244.8
2624.08	19210.8
2625.44	19199.5
2626.8	19237.8
2628.15	19139.9
2629.51	19160.7
2630.87	19084.8
2632.23	19120.9
2633.59	19095.5
2634.94	19109.4
2636.3	19090.3
2637.66	19086.3
2639.01	19121.6
2640.37	19060.1
2641.73	19093.8
2643.08	19032.1
2644.44	19057.2
2645.79	19031.1
2647.15	19003.2
2648.5	19050.8
2649.86	19012.1
2651.21	19033.2
2652.57	18975.8
2653.92	18984
2655.28	18994.6
2656.63	18945.5
2657.98	18939.1
2659.33	18885.7
2660.69	18939.8
2662.04	18965.8
2663.39	18888.1
2664.75	18941.1
2666.1	18923.6
2667.45	18950.3
2668.8	18928.6
2670.15	18856.7
2671.5	18968.8
2672.85	18922.4
2674.2	18857.4
2675.55	18895.2
2676.9	18805.8
2678.25	18850.8
2679.6	18833.9
2680.95	18813.4
2682.3	18839.1
2683.65	18748
2685	18830.3
2686.35	18779.6
2687.7	18791.4
2689.04	18777.5
2690.39	18829
2691.74	18754.9
2693.09	18787.7
2694.43	18723.2
2695.78	18783.2
2697.13	18727.2
2698.47	18667.1
2699.82	18726
2701.16	18744.2
2702.51	18774
2703.85	18737.9
2705.2	18747
2706.54	18804.7
2707.89	18771.1
2709.23	18791.5
2710.58	18747.8
2711.92	18812.1
2713.26	18726.5
2714.61	18733.4
2715.95	18708.8
2717.29	18740
2718.64	18715.6
2719.98	18715.1
2721.32	18717.9
2722.66	18718.7
2724	18664.6
2725.35	18824.3
2726.69	18692.4
2728.03	18648.7
2729.37	18625.9
2730.71	18631.7
2732.05	18615.2
2733.39	18656.5
2734.73	18613.5
2736.07	18431.8
2737.41	18463
2738.75	18400.9
2740.09	18328.1
2741.42	18354.1
2742.76	18351.9
2744.1	18309.1
2745.44	18343.1
2746.78	18256.7
2748.11	18264.7
2749.45	18183.5
2750.79	18194
2752.12	18169.6
2753.46	18210.7
2754.8	18146.8
2756.13	18067.4
2757.47	18143.1
2758.81	18115
2760.14	18115.5
2761.47	18098.5
2762.81	18046.1
2764.14	18008.8
2765.48	18020.5
2766.81	18029
2768.15	18087.4
2769.48	17990.8
2770.81	18032.3
2772.15	17918.3
2773.48	17923.2
2774.81	17937.1
2776.14	17897.8
2777.48	18005.8
2778.81	17909.9
2780.14	17828.2
2781.47	17906.5
2782.8	17833.2
2784.13	17860.3
2785.47	17882.4
2786.8	17801.1
2788.13	17738
2789.46	17774.6
2790.79	17769.6
2792.12	17730.8
2793.44	17815.1
2794.77	17782.5
2796.1	17833.9
2797.43	17822.4
2798.76	17848.6
2800.09	17751.6
2801.42	17750.5
2802.74	17788.7
2804.07	17764.1
2805.4	17693.4
2806.73	17677.5
2808.05	17699.7
2809.38	17697.8
2810.71	17749.8
2812.03	17763.3
2813.36	17709.3
2814.68	17743.2
2816.01	17846.9
2817.33	17756.2
2818.66	17832.7
2819.98	17826.7
2821.31	17864.5
2822.63	17885.2
2823.96	17866.9
2825.28	17905.2
2826.6	17954.7
2827.93	18006.8
2829.25	18094.4
2830.57	18144.4
2831.9	18289.8
2833.22	18380.5
2834.54	18548.1
2835.86	18731.1
2837.19	19011.4
2838.51	19385.1
2839.83	19795.4
2841.15	20258.5
2842.47	20686.3
2843.79	21260.9
2845.11	21675.8
2846.43	21993
2847.75	22277.1
2849.07	22313.9
2850.39	22282.8
2851.71	22263.5
2853.03	22095.2
2854.35	21961.8
2855.66	21758
2856.98	21733
2858.3	21547.9
2859.62	21430.7
2860.94	21368.4
2862.25	21247.4
2863.57	21235.7
2864.89	21334.8
2866.2	21268.9
2867.52	21381.6
2868.84	21552.7
2870.15	21658.2
2871.47	21672.2
2872.78	21777.4
2874.1	21914
2875.41	22011.8
2876.73	22072.1
2878.04	22138.2
2879.36	22245.9
2880.67	22226.2
2881.98	22239.4
2883.3	22199.1
2884.61	22242.7
2885.92	22083
2887.24	22205.3
2888.55	22162.4
2889.86	22216.6
2891.18	22161.3
2892.49	22119.7
2893.8	22093.3
2895.11	22096.7
2896.42	22058.7
2897.73	22080.3
2899.04	22114.5
2900.35	22024.5
2901.67	22106.6
2902.97	21992.5
2904.29	21944.4
2905.59	21974.3
2906.9	21960.2
2908.21	21892.5
2909.52	21876.9
2910.83	21902.1
2912.14	21865.9
2913.45	21831.7
2914.76	21874.6
2916.06	21889.7
2917.37	21787.2
2918.68	21743.5
2919.99	21866.7
2921.29	21897.8
2922.6	21851.7
2923.91	21870.6
2925.21	21770.5
2926.52	21731.2
2927.82	21749.7
2929.13	21811.9
2930.44	21789
2931.74	21759.7
2933.05	21664.7
2934.35	21569.2
2935.65	21491.9
2936.96	21297.2
2938.26	21106.1
2939.57	20935.5
2940.87	20676.9
2942.17	20335.2
2943.48	20075.5
2944.78	19895
2946.08	19777.5
2947.38	19611.4
2948.69	19466.9
2949.99	19342
2951.29	19343.6
2952.59	19213.9
2953.89	19160.7
2955.19	19155.3
2956.49	19012.3
2957.8	18939.1
2959.1	18904.8
2960.4	18785
2961.7	18710.1
2962.99	18678.4
2964.29	18595.2
2965.59	18519.5
2966.89	18422.9
2968.19	18331.5
2969.49	18266.3
2970.79	18104.2
2972.09	18052.9
2973.38	17956.5
2974.68	17907.3
2975.98	17814.4
2977.28	17790.2
2978.57	17682.3
2979.87	17682.2
2981.17	17596
2982.46	17521.2
2983.76	17596.8
2985.05	17419.3
2986.35	17301.6
2987.65	17363.9
2988.94	17309.3
2990.24	17166
2991.53	17241.4
2992.82	17255.7
2994.12	17169.3
2995.41	17144.9
2996.71	17177.5
2998	17221.7
2999.29	17080.6
3000.59	17099.7
3001.88	17069.8
3003.17	17114.2
3004.47	17104.4
3005.76	17015.5
3007.05	17014.5
3008.34	16975.4
3009.63	16944.2
3010.92	16864.3
3012.21	16828.7
3013.5	16828
3014.8	16758.6
3016.09	16736.8
3017.38	16708.5
3018.67	16690.6
3019.96	16654.6
3021.25	16683.6
3022.54	16621.4
3023.82	16635.9
3025.11	16582.5
3026.4	16581.4
3027.69	16521
3028.98	16621.8
3030.27	16488.9
3031.55	16516.1
3032.84	16489.1
3034.13	16497.7
3035.42	16512
3036.7	16457.8
3037.99	16477.1
3039.28	16499.9
3040.56	16519.3
3041.85	16543.8
3043.13	16498
3044.42	16530.9
3045.7	16587.6
3046.99	16522
3048.27	16574.9
3049.56	16605
3050.84	16627.1
3052.13	16599.8
3053.41	16585.9
3054.69	16650.4
3055.98	16661.3
3057.26	16646.8
3058.54	16658.4
3059.83	16686.1
3061.11	16676.3
3062.39	16696.6
3063.67	16657.3
3064.95	16721.4
3066.24	16720.8
3067.52	16709.4
3068.8	16738
3070.08	16720.4
3071.36	16692.7
3072.64	16695.6
3073.92	16749.3
3075.2	16752.6
3076.48	16714.2
3077.76	16775.3
3079.04	16744.8
3080.32	16753.2
3081.6	16705
3082.88	16703.9
3084.16	16731.4
3085.44	16806.6
3086.71	16718.8
3087.99	16796.2
3089.27	16843
3090.55	16788.8
3091.82	16833.7
3093.1	16798.4
3094.38	16838.1
3095.65	16835.9
3096.93	16823.2
3098.21	16844.6
3099.48	16884
3100.76	16879.6
3102.03	16963
3103.31	16927.5
3104.58	17052.6
3105.86	17017.4
3107.13	17041.6
3108.41	17097.1
3109.68	17160.3
3110.96	17123.3
3112.23	17105
3113.5	17167.5
3114.78	17189.6
3116.05	17181.2
3117.32	17205.1
3118.59	17272.4
3119.87	17245.6
3121.14	17327
3122.41	17295.3
3123.68	17270.4
3124.95	17325.2
3126.23	17393.8
3127.5	17398.3
3128.77	17432.6
3130.04	17520.2
3131.31	17457
3132.58	17593.5
3133.85	17612
3135.12	17562.6
3136.39	17616.1
3137.66	17636
3138.93	17703.2
3140.2	17694.3
3141.46	17665.6
3142.73	17703.4
3144	17765.1
3145.27	17703.9
3146.54	17826.1
3147.8	17867
3149.07	17917.8
3150.34	17899.4
3151.6	17905.5
3152.87	17971.6
3154.14	18010.7
3155.4	18055.4
3156.67	18025.6
3157.94	18051.3
3159.2	18154.8
3160.47	18089.6
3161.73	18159.4
3163	18154.7
3164.26	18149.3
3165.53	18123.4
3166.79	18157.7
3168.05	18147.4
3169.32	18142.7
3170.58	18091.2
3171.84	18076.6
3173.11	18100.6
3174.37	17988.8
3175.63	18000.6
3176.9	18026
3178.16	18016.2
3179.42	17998.4
3180.68	17965.3
3181.94	17919.5
3183.21	17970.2
3184.47	17848.9
3185.73	17851.5
3186.99	17852.7
3188.25	17807.7
3189.51	17834.6
3190.77	17812
3192.03	17763.9
3193.29	17787
3194.55	17699.1
3195.81	17690.1
3197.07	17698.3
3198.33	17678.7
3199.58	17628.8
3200.84	17619.5
3202.1	17630.8
3203.36	17620.4
3204.62	17574.8
3205.87	17543.6
3207.13	17566.2
3208.39	17506.5
3209.65	17512.6
3210.9	17386.2
3212.16	17378.8
3213.41	17355.5
3214.67	17343.5
3215.93	17313
3217.18	17290.5
3218.44	17245.4
3219.69	17244.5
3220.95	17197.9
3222.2	17209.5
3223.46	17157.1
3224.71	17128.3
3225.97	17045
3227.22	17087.7
3228.47	17056.1
3229.73	17048.7
3230.98	17020.4
3232.23	17003.6
3233.48	16948.6
3234.74	16926.6
3235.99	16896.4
3237.24	16878.3
3238.49	16870.3
3239.75	16777.3
3241	16770.5
3242.25	16765.2
3243.5	16755.6
3244.75	16713.5
3246	16707.5
3247.25	16643
3248.5	16604.1
3249.75	16563.5
3251	16541.2
3252.25	16479.5
3253.5	16511.9
3254.75	16415
3256	16379.3
3257.25	16327.3
3258.49	16339.1
3259.74	16261.2
3260.99	16303.1
3262.24	16218.6
3263.49	16164.7
3264.73	16160
3265.98	16099.9
3267.23	16172.3
3268.47	16146.5
3269.72	16058.7
3270.97	16023.4
3272.21	16044.6
3273.46	16012.8
3274.7	15986.7
3275.95	15901.5
3277.2	15951
3278.44	15853.3
3279.69	15836.6
3280.93	15765.2
3282.17	15803.9
3283.42	15739.5
3284.66	15740.6
3285.91	15717.2
3287.15	15665.4
3288.39	15707
3289.64	15618.2
3290.88	15605.8
3292.12	15562.2
3292.31	15538.4
3293.56	15545.1
3294.8	15534.8
3296.05	15483.6
3297.3	15450.9
3298.55	15426.6
3299.79	15435.9
3301.04	15413.7
3302.29	15420.2
3303.54	15424.4
3304.78	15408.4
3306.03	15384.2
3307.27	15366.1
3308.52	15306.1
3309.76	15350.5
3311.01	15296.9
3312.26	15301.7
3313.5	15176.2
3314.75	15228.1
3315.99	15202
3317.23	15188.9
3318.48	15112.4
3319.72	15232.7
3320.97	15101.3
3322.21	15144
3323.45	15136.4
3324.7	15097.6
3325.94	15066.5
3327.18	15098.7
3328.42	15071.8
3329.67	15033.4
3330.91	15038.3
3332.15	15026.6
3333.39	15016.6
3334.63	14968.3
3335.87	14980.1
3337.12	14928
3338.36	14904.2
3339.6	14892.7
3340.84	14866.7
3342.08	14830.9
3343.32	14772.6
3344.56	14844.8
3345.8	14793.2
3347.04	14823.1
3348.27	14754
3349.51	14731.8
3350.75	14711.2
3351.99	14700.9
3353.23	14635.7
3354.47	14618.5
3355.7	14627.7
3356.94	14625.9
3358.18	14624
3359.42	14594.4
3360.65	14614.6
3361.89	14606.5
3363.13	14519.4
3364.36	14548.2
3365.6	14529.6
3366.83	14522.8
3368.07	14505.2
3369.31	14484.2
3370.54	14468.9
3371.78	14440.9
3373.01	14479.4
3374.25	14393.8
3375.48	14410.2
3376.71	14362.1
3377.95	14373.7
3379.18	14309.5
3380.42	14372.1
3381.65	14333.9
3382.88	14210.9
3384.12	14283.5
3385.35	14268.4
3386.58	14304.8
3387.81	14152.3
3389.04	14196.2
3390.28	14196.6
3391.51	14177.6
3392.74	14179.5
3393.97	14125.6
3395.2	14109
3396.43	14126.5
3397.67	14144.5
3398.9	14037.3
3400.13	14059.6
3401.36	14028.8
3402.58	14034
3403.82	13950
3405.05	14013.4
3406.27	13983.8
3407.5	13950.5
3408.73	13901.7
3409.96	13902.3
3411.19	13854.4
3412.42	13810.5
3413.64	13844.8
3414.87	13813.5
3416.1	13786.4
3417.33	13745.9
3418.55	13805.6
3419.78	13673.8
3421.01	13699.9
3422.23	13668.9
3423.46	13638.2
3424.69	13579.4
3425.91	13545.9
3427.14	13548
3428.36	13528.3
3429.59	13517.8
3430.81	13512.8
3432.04	13439.5
3433.26	13460.8
3434.49	13363.9
3435.71	13381.8
3436.94	13370.9
3438.16	13276.2
3439.39	13283.7
3440.61	13250.8
3441.83	13226.5
3443.05	13166.3
3444.28	13176.2
3445.5	13119.8
3446.72	13076.7
3447.95	13021.6
3449.17	13012
3450.39	12988.7
3451.61	12951.3
3452.83	12912.1
3454.05	12904
3455.27	12897.6
3456.5	12923.8
3457.71	12842.1
3458.94	12819.6
3460.16	12731.1
3461.38	12723.8
3462.59	12774
3463.81	12715.1
3465.03	12662.2
3466.25	12655.2
3467.47	12557.4
3468.69	12541.8
3469.91	12497.3
3471.13	12484.1
3472.35	12442.9
3473.56	12413.3
3474.78	12369.3
3476	12336.4
3477.22	12291.3
3478.43	12226.8
3479.65	12195.2
3480.87	12203.2
3482.08	12092.2
3483.3	12107.6
3484.52	12056.2
3485.73	12025.8
3486.95	12009.9
3488.16	11932.6
3489.38	11886.1
3490.59	11888
3491.81	11815.2
3493.02	11843.2
3494.24	11781.5
3495.45	11736
3496.67	11681.8
3497.88	11675
3499.09	11580.3
