#Acq. time (s)=	10
#Accumulations=	10
#Range (cm-¹)=	400...3500
#Windows=	3
#Auto scanning=	Off
#Autofocus=	Off
#AutoExposure=	Off
#Spike filter=	Multiple accum.
#Delay time (s)=	0
#Binning=	1
#Readout mode=	Signal
#DeNoise=	Off
#ICS correction=	On
#Dark correction=	Off
#Inst. Process=	Off
#Detector Gain=	Best Dynamic Range
#Detector ADC=	45 kHz       
#Detector temperature (°C)=	-60.1
#Instrument=	LabRAM HR Evol
#Detector=	Syncerity OE
#Objective=	x50_VIS_LWD
#Grating=	600 (500nm)
#ND Filter=	50%
#Laser=	532nm_Edge
#Hole=	199.981
#Range=	Visible
#E-Cal_Neon=	0
#StageXY=	75x50mm Scan+
#StageZ=	Z motor
#X (µm)=	0
#Y (µm)=	0
#Z (µm)=	870.3
#Spectral res.(cm-¹)=	12.8
#Full time(mm:ss)=	5:19
#AC=	Calibrated 2025-06-30 10:26
#Project=	
#Sample=	
#Site=	
#Title=	D_99
#Remark=	
#Date=	30.06.2025 14:38 (India Standard Time)
#Acquired=	30.06.2025 14:38:49 (India Standard Time)
#AxisType[0]=Intens
#AxisUnit[0]=Cnt
#AxisType[1]=Spectr
#AxisUnit[1]=1/cm
400.17	23367.3
401.945	23214.8
403.717	23162.1
405.491	23218.6
407.263	23284.9
409.036	23224.2
410.807	23125.1
412.58	23100.8
414.35	23094.9
416.122	23142.3
417.892	23184.3
419.663	23112.5
421.432	23190
423.203	23127.3
424.971	23060.1
426.741	23162.2
428.509	23078.2
430.276	23119.9
432.045	23118.3
433.812	23081.2
435.58	23084.7
437.346	23034.9
439.111	22977.3
440.879	23017.9
442.643	22984.1
444.408	22948.8
446.174	22940.6
447.938	22903.1
449.701	22925.4
451.467	22820.6
453.229	22893.5
454.992	22830.7
456.756	22769.3
458.518	22716.4
460.279	22745.7
462.043	22751.8
463.803	22656.7
465.564	22758.2
467.326	22650.1
469.086	22597.6
470.845	22643.2
472.604	22631
474.365	22506.1
476.123	22568.5
477.882	22506.1
479.639	22494.7
481.399	22543
483.156	22500.6
484.913	22458.4
486.669	22473.5
488.425	22452.2
490.183	22478.4
491.938	22480.1
493.693	22363
495.448	22383.8
497.202	22430.5
498.956	22439.8
500.712	22460.5
502.465	22451.4
504.218	22452
505.971	22494
507.723	22551.6
509.475	22482
511.227	22484.5
512.981	22491.8
514.732	22440.5
516.482	22503.6
518.233	22504.5
519.983	22431.4
521.732	22354.3
523.482	22392.4
525.231	22294.8
526.979	22349
528.728	22252.5
530.476	22175.4
532.223	22244.9
533.971	22135.4
535.718	22080.8
537.464	22089.6
539.211	22042.9
540.956	22012.6
542.702	21949
544.447	21945.4
546.192	21876.6
547.937	21919.9
549.681	21850.8
551.425	21913.6
553.169	21813.9
554.912	21868.2
556.655	21799.5
558.398	21777.6
560.14	21750.6
561.882	21736.1
563.624	21758
565.365	21699.7
567.106	21684.2
568.847	21742.6
570.585	21731.9
572.325	21783
574.065	21810.6
575.804	21838.5
577.543	21760.9
579.282	21868.3
581.02	21897.5
582.756	21739.3
584.494	21905.5
586.231	21915.7
587.968	21878.1
589.705	21931.2
591.441	21915.5
593.175	21925
594.911	21991.3
596.646	22006.6
598.381	22066.6
600.116	21983.5
601.848	22016.6
603.582	22095.6
605.316	22101.5
607.049	22042.1
608.78	22021.1
610.513	21948.5
612.245	21917.9
613.977	21829.5
615.707	21754.9
617.438	21717.3
619.17	21675
620.898	21646.5
622.629	21583.3
624.359	21564.5
626.086	21481.3
627.816	21431.9
629.545	21441.6
631.272	21395.7
633	21446.9
634.728	21385.4
636.454	21388.6
638.181	21331.3
639.908	21331.8
641.633	21454.4
643.36	21289.5
645.084	21267.9
646.81	21279.4
648.535	21265.4
650.258	21189.5
651.983	21118.7
653.705	21197.8
655.43	21119.8
657.153	21089.9
658.875	21117
660.598	20997.7
662.319	21012.2
664.041	21014.7
665.762	20957.7
667.483	21000.8
669.203	20988.5
670.924	20943.9
672.643	20964.1
674.364	20930.8
676.082	20970.4
677.802	20971.3
679.519	20897.6
681.238	20895.2
682.955	20938.4
684.674	20891.5
686.39	20917.6
688.106	20981.3
689.824	20899.9
691.539	20945.7
693.256	20958.8
694.971	20924.9
696.685	20961
698.401	21085.7
700.115	20998.3
701.83	21041.9
703.543	20971.7
705.256	20971.8
706.97	21026.2
708.682	20968.4
710.394	20941.1
712.107	20951.8
713.818	20982.8
715.529	20999.4
717.241	20983.9
718.952	21051.6
720.661	21079.5
722.373	21085.1
724.082	21115.4
725.791	21111.8
727.501	21060.3
729.209	21075.4
730.917	20991.9
732.625	21025.6
734.334	21005.5
736.041	20961.7
737.747	20941.6
739.453	20952
741.161	20909.1
742.867	20865
744.572	20845.1
746.277	20839.8
747.982	20870.9
749.688	20863.5
751.392	20827.4
753.096	20865.6
754.799	20932.4
756.502	20944.3
758.205	20962.5
759.909	20989.5
761.611	20948.5
763.313	20899.6
765.014	20900.7
766.715	20908.2
768.416	20968.2
770.116	21010.3
771.816	20986.6
773.516	20965.8
775.218	20935.9
776.917	21032.3
778.616	20946.3
780.314	20946
782.012	20975
783.71	20979.3
785.408	20970
787.105	20979.4
788.802	21005.8
790.498	20939.8
792.195	21047.7
793.891	20938.5
795.586	20983.2
797.281	21041.4
798.977	21059.5
800.671	21036.7
802.365	21149.4
804.06	21160.4
805.753	21204.8
807.447	21241.4
809.14	21299.6
810.832	21249.3
812.525	21229.8
814.217	21319.5
815.907	21386
817.598	21403.9
819.289	21504
820.98	21523.9
822.671	21675.2
824.361	21766.5
826.051	21885
827.74	21909.4
829.43	21867.7
831.117	21976.4
832.805	22112.4
834.494	22148.3
836.182	22155
837.869	22251.5
839.557	22374.5
841.242	22359.5
842.928	22494.1
844.615	22528.8
846.301	22575.6
847.987	22627.8
849.67	22596.8
851.355	22709.3
853.04	22591.1
854.724	22627
856.407	22678.5
858.091	22660.1
859.774	22841.6
861.457	22784.1
863.138	22903.2
864.821	22947.8
866.503	23105
868.183	23151.6
869.865	23178.1
871.546	23121.9
873.225	23142.8
874.906	23130.2
876.586	23034.5
878.264	22892.2
879.944	22814.6
881.624	22751.6
883.301	22686.3
884.98	22755.6
886.658	22775.8
888.334	22758.1
890.012	22790.4
891.688	22682.2
893.365	22567.7
895.042	22444.4
896.717	22270.2
898.393	22171
900.067	21975.1
901.743	21867.7
903.416	21794.1
905.091	21638.9
906.766	21618.2
908.438	21557.5
910.112	21478.9
911.784	21379.5
913.458	21498.5
915.129	21538.9
916.802	21456.8
918.472	21488.3
920.145	21549.7
921.815	21519.8
923.484	21430
925.156	21292.9
926.825	21184
928.495	21171.5
930.164	21095.9
931.834	21017.8
933.501	20954.4
935.171	20958.2
936.838	20881.5
938.505	20895.1
940.173	20883.6
941.84	20841.9
943.505	20862.2
945.173	20894.6
946.838	20985.6
948.505	20963.9
950.17	20947
951.834	21014.8
953.5	21041.8
955.164	20932.6
956.827	21042.1
958.492	21015.5
960.155	20976.3
961.818	21079.3
963.48	21039.3
965.144	21057.9
966.805	20972.5
968.467	20939.6
970.128	20890.5
971.79	20841.1
973.45	20772
975.11	20709.3
976.77	20668.5
978.432	20545.9
980.091	20578.2
981.749	20619.5
983.408	20638.5
985.068	20558.4
986.726	20604.7
988.383	20674.4
990.041	20815.8
991.698	20884.6
993.354	21057.4
995.012	21131.8
996.668	21366.7
998.324	21800.3
999.979	22237.1
1001.63	22606.5
1003.29	22831
1004.94	22937.4
1006.6	22786
1008.25	22618.3
1009.91	22252.8
1011.56	22014.5
1013.21	21835.1
1014.87	21673.3
1016.52	21604.1
1018.17	21434.8
1019.82	21415.5
1021.47	21431.1
1023.12	21377
1024.78	21277
1026.43	21112.1
1028.08	21136.9
1029.73	21072.7
1031.38	21104.8
1033.02	20995.3
1034.67	21023.9
1036.32	21000.3
1037.97	20949.4
1039.62	20975.6
1041.27	20939
1042.91	20974.6
1044.56	20992.3
1046.21	20880.7
1047.85	20991.4
1049.5	20978
1051.14	21057.3
1052.79	21146.3
1054.43	21389.6
1056.08	21524.8
1057.72	21871.4
1059.37	22201.8
1061.01	22598.9
1062.65	22859.7
1064.3	22868
1065.94	22684.2
1067.58	22433.1
1069.23	22219.4
1070.87	22135.8
1072.51	22290
1074.15	22362.5
1075.79	22398.7
1077.43	22549.5
1079.07	22689.9
1080.71	22707.2
1082.35	22633.5
1083.99	22515.1
1085.63	22416.8
1087.27	22291.8
1088.91	22164.2
1090.55	21965.5
1092.18	21792.3
1093.82	21550.7
1095.46	21396.9
1097.1	21156
1098.73	21024
1100.37	20819
1102	20693.5
1103.64	20512.3
1105.27	20361.9
1106.91	20384.2
1108.54	20415.9
1110.18	20375
1111.81	20487.9
1113.44	20547.1
1115.08	20692.7
1116.71	20840.1
1118.34	20952.9
1119.98	21212.3
1121.61	21300.8
1123.24	21440.2
1124.87	21447.1
1126.5	21496.3
1128.13	21413.8
1129.76	21200.8
1131.39	20837.3
1133.02	20498.9
1134.65	20319.6
1136.28	20258.9
1137.91	20118
1139.54	20263.8
1141.17	20426.2
1142.8	20709.4
1144.42	21018.1
1146.05	21465.4
1147.68	21984.4
1149.3	22663
1150.93	23631.4
1152.56	24680.5
1154.18	25709.8
1155.81	26479
1157.43	26677.4
1159.06	25857.7
1160.68	24651.7
1162.31	23355.8
1163.93	22102.7
1165.55	21173.2
1167.18	20621
1168.8	20249.6
1170.42	20101.2
1172.04	20015.4
1173.67	19940.5
1175.29	19817.8
1176.91	19690.4
1178.53	19530.6
1180.15	19490.5
1181.77	19477
1183.39	19553.2
1185.01	19692
1186.63	19697.8
1188.25	19803.4
1189.87	19816.3
1191.49	19835.8
1193.11	19785.3
1194.72	19727.1
1196.34	19598.4
1197.96	19447.3
1199.58	19230.4
1201.19	19122.5
1202.81	19019.1
1204.43	18848.5
1206.04	18832
1207.66	18713.8
1209.27	18765.1
1210.88	18849.2
1212.5	18834.3
1214.11	18686.2
1215.73	18625.6
1217.34	18532.2
1218.95	18362
1220.57	18274.1
1222.18	18266.4
1223.79	18236.6
1225.4	18239.2
1227.02	18218.4
1228.63	18184.4
1230.24	18174.6
1231.85	18252.2
1233.46	18267.3
1235.07	18313.2
1236.68	18304.5
1238.29	18432.2
1239.9	18457.1
1241.51	18587.5
1243.12	18655.8
1244.72	18794.2
1246.33	18837.3
1247.94	18893.6
1249.55	19109.3
1251.15	19089.6
1252.76	19117.1
1254.37	19334.4
1255.97	19379.4
1257.58	19440.8
1259.19	19527.6
1260.79	19571.4
1262.39	19627.7
1264	19781.6
1265.6	19873.9
1267.21	19927.8
1268.81	19863.5
1270.41	19789.8
1272.02	19745
1273.62	19661.4
1275.22	19563.9
1276.82	19600.2
1278.43	19527.3
1280.03	19622.9
1281.63	19613.5
1283.23	19638.5
1284.83	19771.2
1286.43	19828.2
1288.03	19998.5
1289.63	20237
1291.23	20733.4
1292.83	21276
1294.43	21941.4
1296.03	22577.3
1297.62	22983.8
1299.22	23157.9
1300.82	23185.2
1302.42	23142.1
1304.01	22924.9
1305.61	22665.5
1307.21	22181.1
1308.8	21755.3
1310.4	21320.6
1311.99	20964.1
1313.59	20528.8
1315.18	20123.3
1316.78	19823.3
1318.37	19507.8
1319.96	19218.2
1321.56	18985.1
1323.15	18854.3
1324.74	18627
1326.34	18437.2
1327.93	18202.6
1329.52	18101.2
1331.11	17951
1332.7	17855.8
1334.3	17715.2
1335.89	17685.7
1337.48	17610.6
1339.07	17662.7
1340.66	17663
1342.25	17607.5
1343.84	17449.1
1345.42	17487.4
1347.01	17528.6
1348.6	17461.7
1350.19	17301.5
1351.78	17424.4
1353.37	17372.9
1354.95	17333.5
1356.54	17229.3
1358.13	17212.8
1359.71	17134.1
1361.3	17154.1
1362.88	17183.5
1364.47	17197.6
1366.05	17214
1367.64	17180.1
1369.22	17128.4
1370.81	17135.8
1372.39	17045.8
1373.97	16852.7
1375.56	16697.4
1377.14	16632.9
1378.72	16533.6
1380.31	16534
1381.89	16421
1383.47	16352.4
1385.05	16345.6
1386.63	16337
1388.21	16380.8
1389.79	16417.7
1391.37	16363
1392.95	16320.5
1394.53	16352.5
1396.11	16368.2
1397.69	16332.9
1399.27	16298.3
1400.85	16356.1
1402.42	16417.3
1404	16479.7
1405.58	16438.1
1407.16	16493.3
1408.73	16622.7
1410.31	16691.3
1411.89	16857.6
1413.46	17020.7
1415.04	17241.6
1416.61	17465.4
1418.19	17701.2
1419.76	17816.9
1421.34	17996.4
1422.91	18229.9
1424.49	18558.1
1426.06	18824.6
1427.63	19427.4
1429.21	20243.2
1430.78	21298.3
1432.35	22475.4
1433.92	23634.1
1435.49	24662.5
1437.07	25457.4
1438.64	25986.5
1440.21	25979.2
1441.78	25821.3
1443.35	25453.5
1444.92	25053.3
1446.49	24637.6
1448.06	24280.5
1449.63	24011.2
1451.2	23602.1
1452.76	23397.7
1454.33	23251.8
1455.9	22932.8
1457.47	22711.7
1459.03	22453.9
1460.6	21942.1
1462.17	21406.7
1463.74	20963.6
1465.3	20464.2
1466.87	19918.3
1468.43	19448.5
1470	18974.1
1471.56	18472.6
1473.13	18051.2
1474.69	17673.2
1476.26	17306
1477.82	17139.7
1479.38	16808.2
1480.94	16627
1482.51	16515.7
1484.07	16384.6
1485.63	16269
1487.2	16218.9
1488.76	16254.5
1490.32	16218.5
1491.88	16236.8
1493.44	16169.4
1495	16311.1
1496.56	16375.1
1498.12	16452.2
1499.68	16541.4
1501.24	16670.5
1502.8	16894.4
1504.36	17151.9
1505.91	17467
1507.47	17757.8
1509.03	18240.5
1510.59	18751.7
1512.14	19418
1513.7	20118.6
1515.26	20725
1516.81	21410.9
1518.37	22024.3
1519.93	22471.8
1521.48	22638.3
1523.04	22669
1524.59	22395.6
1526.15	21888.1
1527.7	21147.9
1529.25	20300
1530.81	19292.2
1532.36	18392.3
1533.91	17606.7
1535.47	16942.9
1537.02	16334.1
1538.57	16031.6
1540.12	15691
1541.67	15506.2
1543.23	15255.3
1544.78	15102
1546.33	14967.5
1547.88	14869.2
1549.43	14814.6
1550.98	14697.3
1552.53	14605.4
1554.08	14614.9
1555.63	14651
1557.18	14586.6
1558.72	14440.6
1560.27	14387.1
1561.82	14390.4
1563.37	14422.9
1564.91	14386.8
1566.46	14303.5
1568.01	14381.1
1569.55	14364.1
1571.1	14349.2
1572.64	14330.3
1574.19	14310.2
1575.74	14285.5
1577.28	14318.3
1578.83	14362.8
1580.37	14303.1
1581.91	14290.1
1583.46	14316
1585	14280.9
1586.54	14346.9
1588.09	14263
1589.63	14271.8
1591.17	14248
1592.71	14239.2
1594.25	14241.1
1595.79	14279.7
1597.34	14227.8
1598.88	14169
1600.42	14191.6
1601.96	14256
1603.5	14256.2
1605.04	14216.7
1606.58	14183
1608.12	14116.7
1609.65	14157.8
1611.19	14087
1612.73	14098
1614.27	14024.7
1615.8	13968.2
1617.34	14053.5
1618.88	14011.6
1620.42	13939.7
1621.95	13999.9
1623.49	13955.4
1625.03	14047.7
1626.56	14043
1628.1	14133.7
1629.63	14088.6
1631.17	14156.3
1632.7	14251
1634.23	14239.4
1635.77	14346.8
1637.3	14418.5
1638.83	14571.4
1640.37	14638
1641.9	14784.2
1643.43	15010
1644.96	15303.9
1646.5	15720
1648.03	16268.6
1649.56	16945.7
1651.09	17550.9
1652.62	17974.2
1654.15	18107.8
1655.68	17972
1657.21	17401.5
1658.74	16821
1660.27	16275.3
1661.8	15717.5
1663.32	15316.4
1664.85	15130.4
1666.38	14878.9
1667.91	14866.8
1669.44	14626.3
1670.96	14505.9
1672.49	14289.8
1674.02	14116.9
1675.54	13847.2
1677.07	13685.3
1678.59	13552.4
1680.12	13493.8
1681.65	13383.2
1683.17	13324.4
1684.69	13271.4
1686.22	13220.1
1687.74	13179.5
1689.27	13087.1
1690.79	13062.2
1692.31	13074.8
1693.84	12979
1695.36	12965.3
1696.88	12874.8
1698.4	12875
1699.92	12824.4
1701.45	12774.9
1702.97	12762.3
1704.49	12764.4
1706.01	12739.1
1707.53	12657.6
1709.05	12665.1
1710.57	12646.4
1712.09	12629.8
1713.61	12605.7
1715.13	12633.2
1716.65	12668.8
1718.16	12599.9
1719.68	12599.8
1721.2	12646.5
1722.72	12705.3
1724.23	12732.6
1725.75	12803.6
1727.27	12885.9
1728.78	12928.9
1730.3	13067.8
1731.82	13126.2
1733.33	13252.9
1734.84	13397.3
1736.36	13585.3
1737.87	13791.5
1739.39	14052.2
1740.9	14185.6
1742.42	14269.1
1743.93	14178.9
1745.44	14251.9
1746.96	14195
1748.47	14080.1
1749.98	13991.3
1751.49	13801.4
1753	13656.4
1754.51	13471.3
1756.03	13208.1
1757.54	13025.4
1759.05	12788.6
1760.56	12630.7
1762.07	12499.5
1763.58	12327.4
1765.09	12234.6
1766.6	12148.7
1768.11	12136.3
1769.61	12080.4
1771.12	12051.9
1772.63	12081.2
1774.14	11992.1
1775.65	12022.8
1777.15	11895.3
1778.66	11958.5
1780.17	11854.8
1781.67	11899.6
1783.18	11871.3
1784.68	11812
1786.19	11790.4
1787.7	11845.9
1789.2	11868
1790.71	11783.7
1792.21	11778.3
1793.71	11785.6
1795.22	11699.8
1796.72	11730.5
1798.22	11767.6
1799.73	11669.4
1801.23	11719.6
1802.73	11646.9
1804.23	11646.1
1805.74	11581.5
1807.24	11669.6
1808.74	11627.6
1810.24	11683.2
1811.74	11595.1
1813.24	11664
1814.74	11568.5
1816.24	11568.4
1817.74	11524.7
1819.24	11492
1820.74	11501.7
1822.24	11500.8
1823.74	11486.4
1825.23	11481.8
1826.73	11443.4
1828.23	11437
1829.73	11459.1
1831.22	11457.8
1832.72	11464.7
1834.22	11410.5
1835.71	11445.9
1837.21	11355.7
1838.71	11398.6
1840.2	11435.2
1841.7	11388.9
1843.19	11319.8
1844.68	11355
1846.18	11427.1
1847.67	11363.3
1849.17	11369.5
1850.66	11358.7
1852.15	11242.9
1853.65	11286.5
1855.14	11275.3
1856.63	11264.3
1858.12	11266
1859.62	11231.3
1861.11	11203.4
1862.6	11246.6
1864.09	11181.7
1865.58	11223.4
1867.07	11202.3
1868.56	11209.5
1870.05	11187.7
1871.54	11160.8
1873.03	11070
1874.52	11102.1
1876.01	11126.2
1877.49	11142.3
1878.98	11129.5
1880.47	11120.7
1881.96	11078.2
1883.45	11015.5
1884.93	11041.9
1886.42	10974
1887.91	10940.2
1889.39	10976.5
1890.88	11042.1
1892.36	10948.2
1893.85	10956.3
1895.34	10967
1896.82	10902.7
1898.3	10908
1899.79	10857.4
1901.27	10860
1902.76	10839.5
1904.24	10722.1
1905.72	10720.4
1907.2	10691.3
1908.69	10691.5
1910.17	10617
1911.65	10592.2
1913.13	10553.4
1914.62	10513.1
1916.1	10521.7
1917.58	10383.7
1919.06	10394.9
1920.54	10395.3
1922.02	10324.5
1923.5	10281.8
1924.98	10284.8
1926.46	10276.1
1927.94	10239.9
1929.42	10221
1930.89	10152
1932.37	10117.2
1933.85	10128.2
1935.33	10054.2
1936.81	10031.2
1938.28	9954.32
1939.76	9965.08
1941.24	9908.62
1942.71	9885.31
1944.19	9883.84
1945.66	9831.7
1947.14	9760.45
1948.61	9769.85
1950.09	9744.19
1951.57	9732.14
1953.04	9655.28
1954.51	9630.93
1955.99	9561.85
1957.46	9551.69
1958.93	9536.8
1960.41	9543.46
1961.88	9496
1963.35	9417.17
1964.82	9400.21
1966.3	9376.46
1967.77	9366.15
1969.24	9301.24
1970.71	9286.46
1972.18	9258.94
1973.65	9232
1975.12	9236.67
1976.59	9201.72
1978.06	9173.59
1979.53	9138.81
1981	9123.42
1982.47	9114.98
1983.94	9070.49
1985.41	9048.01
1986.87	9014.27
1988.34	9020.95
1989.81	8941
1991.28	8928.08
1992.74	8916.41
1994.21	8855.8
1995.68	8838.16
1997.14	8823.99
1998.61	8783.45
2000.07	8750.9
2001.54	8751.08
2003.01	8702.67
2004.47	8687.08
2005.94	8655.29
2007.4	8665.37
2008.86	8635.21
2010.33	8618.51
2011.79	8579.2
2013.25	8551.62
2014.72	8550.63
2016.18	8524.08
2017.64	8486.19
2019.1	8457.08
2020.57	8428.08
2022.03	8408.61
2023.49	8390.02
2024.95	8376.88
2026.41	8352.16
2027.87	8309.31
2029.33	8297.65
2030.79	8269.66
2032.25	8243.22
2033.71	8243.09
2035.17	8257.22
2036.63	8228.87
2038.09	8171.04
2039.54	8177.84
2041	8179.07
2042.46	8167.52
2043.92	8135.7
2045.38	8091.44
2045.86	8072.24
2047.32	8120.98
2048.79	8071.82
2050.25	8072.45
2051.71	8054.59
2053.17	8062.13
2054.64	8032.86
2056.1	8047.63
2057.56	8039.23
2059.02	8007.42
2060.48	8012.21
2061.94	7995.2
2063.4	7947.69
2064.86	7981.92
2066.32	7978.04
2067.78	8005.03
2069.24	7967.39
2070.7	7977.93
2072.16	7943.27
2073.62	7977.36
2075.08	7985.8
2076.54	7963.97
2077.99	7935.52
2079.45	7918.56
2080.91	7902.76
2082.37	7889.55
2083.82	7894.81
2085.28	7898.98
2086.74	7871.93
2088.19	7890.43
2089.65	7890.47
2091.1	7843.29
2092.56	7857.4
2094.01	7856.58
2095.47	7821.56
2096.92	7764.83
2098.38	7814.22
2099.83	7804.26
2101.29	7787.65
2102.74	7798.34
2104.19	7786.25
2105.64	7797.61
2107.1	7760.19
2108.55	7738.51
2110	7765.63
2111.45	7752.33
2112.91	7702.51
2114.36	7747.36
2115.81	7698.76
2117.26	7678.81
2118.71	7692.72
2120.16	7702.37
2121.61	7682.08
2123.06	7680.88
2124.51	7637.78
2125.96	7673.95
2127.4	7656.38
2128.85	7635.58
2130.3	7640.14
2131.75	7649.45
2133.2	7618.12
2134.65	7615.02
2136.09	7630.91
2137.54	7607.83
2138.99	7627.45
2140.43	7593.73
2141.88	7583.49
2143.32	7560.08
2144.77	7555.73
2146.22	7609.44
2147.66	7553.73
2149.11	7591.18
2150.55	7548.29
2152	7530.01
2153.44	7522.34
2154.88	7555.78
2156.33	7512.68
2157.77	7526.17
2159.21	7538.34
2160.66	7505.08
2162.1	7510.52
2163.54	7493.52
2164.98	7539.16
2166.43	7496.42
2167.87	7499.15
2169.31	7510.53
2170.75	7466.12
2172.19	7509.21
2173.63	7463.34
2175.07	7440.32
2176.51	7444.48
2177.95	7425.32
2179.39	7419.6
2180.83	7421.91
2182.27	7429.27
2183.71	7391.82
2185.14	7417.66
2186.58	7427.04
2188.02	7365.88
2189.46	7335.13
2190.9	7347.82
2192.33	7366.41
2193.77	7367.09
2195.21	7344.87
2196.64	7333.61
2198.08	7308.91
2199.51	7336.38
2200.95	7323.38
2202.39	7297.9
2203.82	7297.71
2205.25	7265.11
2206.69	7305
2208.12	7240.01
2209.56	7259.46
2210.99	7223.76
2212.42	7190.4
2213.86	7219.14
2215.29	7179.89
2216.72	7148
2218.15	7174.14
2219.59	7161.19
2221.02	7147.34
2222.45	7129.42
2223.88	7106.32
2225.31	7098.45
2226.74	7086.18
2228.17	7086.88
2229.6	7098.23
2231.03	7093.48
2232.46	7050.95
2233.89	7095.69
2235.32	7025.9
2236.75	7026.98
2238.18	7007.5
2239.61	7014.32
2241.04	6998.59
2242.46	6999.33
2243.89	6963.35
2245.32	6970.01
2246.75	6974.8
2248.17	6953.04
2249.6	6953.72
2251.03	6934.1
2252.45	6895.17
2253.88	6905.15
2255.31	6912.31
2256.73	6893.12
2258.16	6918.84
2259.58	6883.42
2261	6816.23
2262.43	6818.77
2263.85	6819
2265.28	6793.43
2266.7	6814.51
2268.12	6782.73
2269.55	6812.89
2270.97	6728.65
2272.39	6741.98
2273.81	6709.82
2275.24	6759.83
2276.66	6750.2
2278.08	6709.53
2279.5	6696.05
2280.92	6701.05
2282.34	6691.47
2283.76	6653.75
2285.18	6673.75
2286.6	6646.02
2288.02	6659.33
2289.44	6634.29
2290.86	6629.41
2292.28	6559.7
2293.7	6605.73
2295.12	6599.68
2296.54	6601.13
2297.95	6585.56
2299.37	6578.26
2300.79	6575.5
2302.21	6584.88
2303.62	6545.4
2305.04	6569.3
2306.46	6524.99
2307.87	6513.91
2309.29	6513.98
2310.7	6536.63
2312.12	6502.3
2313.53	6517
2314.95	6488.61
2316.36	6476.77
2317.78	6469.15
2319.19	6439.77
2320.61	6414.64
2322.02	6412.49
2323.43	6461.03
2324.85	6449.64
2326.26	6496.38
2327.67	6556.88
2329.08	6657.79
2330.5	6679.58
2331.91	6536.08
2333.32	6379.63
2334.73	6330.8
2336.14	6308.46
2337.55	6301
2338.96	6294.57
2340.37	6290.46
2341.78	6265.04
2343.19	6251.5
2344.6	6246.28
2346.01	6266.8
2347.42	6233.05
2348.83	6197.41
2350.24	6205.76
2351.65	6144.56
2353.05	6166.1
2354.46	6132.23
2355.87	6158.32
2357.28	6134.81
2358.68	6113.47
2360.09	6129.75
2361.5	6112.13
2362.9	6077.29
2364.31	6083.66
2365.71	6089.04
2367.12	6082.63
2368.52	6042.95
2369.93	6039.91
2371.33	6042.09
2372.74	6039.3
2374.14	6023.75
2375.55	6025.55
2376.95	6011.88
2378.35	5975.81
2379.76	5990.53
2381.16	5984.25
2382.56	5973.89
2383.96	5950.07
2385.37	5971.19
2386.77	5945.2
2388.17	5948.47
2389.57	5948.86
2390.97	5945.01
2392.37	5923.34
2393.77	5929.23
2395.17	5905.9
2396.57	5902.63
2397.97	5862.65
2399.37	5848.78
2400.77	5851.84
2402.17	5842.95
2403.57	5862.98
2404.97	5856.35
2406.37	5829.94
2407.77	5834.04
2409.16	5811.7
2410.56	5842.65
2411.96	5792.96
2413.36	5792.05
2414.75	5790.56
2416.15	5774.91
2417.55	5767
2418.94	5800.02
2420.34	5741.18
2421.73	5782.33
2423.13	5753.49
2424.52	5717.16
2425.92	5767.3
2427.31	5729.12
2428.71	5731.74
2430.1	5702.88
2431.5	5687.41
2432.89	5696.68
2434.28	5699.52
2435.68	5659.53
2437.07	5657.8
2438.46	5682.64
2439.85	5663.89
2441.25	5684.76
2442.64	5646.52
2444.03	5615.1
2445.42	5629.51
2446.81	5601.83
2448.2	5596.46
2449.59	5609.03
2450.98	5584.94
2452.37	5611.34
2453.76	5595.24
2455.15	5578.51
2456.54	5588.14
2457.93	5531.56
2459.32	5546.52
2460.71	5527.9
2462.1	5509.03
2463.49	5526.5
2464.87	5514.32
2466.26	5519.84
2467.65	5477.8
2469.04	5470.84
2470.42	5467.85
2471.81	5506.29
2473.2	5448.36
2474.58	5483.11
2475.97	5454.21
2477.35	5434.15
2478.74	5465.02
2480.12	5397.71
2481.51	5433.16
2482.89	5444.81
2484.28	5395.4
2485.66	5418.61
2487.05	5386.41
2488.43	5397.6
2489.81	5381.98
2491.2	5410.78
2492.58	5369.47
2493.96	5338.39
2495.34	5395.88
2496.73	5319.54
2498.11	5383.76
2499.49	5349.48
2500.87	5319.78
2502.25	5306.91
2503.63	5329.56
2505.01	5293.01
2506.39	5285.51
2507.77	5305.28
2509.15	5282
2510.53	5255.35
2511.91	5254.48
2513.29	5229.92
2514.67	5251.01
2516.05	5262.63
2517.43	5236.63
2518.81	5229.45
2520.19	5258.38
2521.56	5222.54
2522.94	5230.92
2524.32	5213.39
2525.7	5233.52
2527.07	5236.1
2528.45	5196.4
2529.82	5200.58
2531.2	5169.14
2532.58	5188.2
2533.95	5200.14
2535.33	5156.77
2536.7	5141.32
2538.08	5166.57
2539.45	5150.87
2540.82	5142.87
2542.2	5118.6
2543.57	5108.05
2544.95	5100.02
2546.32	5117.11
2547.69	5084.05
2549.07	5039
2550.44	5061.19
2551.81	5056.89
2553.18	5084.98
2554.55	5062.44
2555.93	5018.72
2557.3	5060.46
2558.67	5015.23
2560.04	5032.86
2561.41	5025.25
2562.78	5031.57
2564.15	5003.9
2565.52	5024.33
2566.89	5008.05
2568.26	4967.84
2569.63	4967.58
2571	4992
2572.36	4980.5
2573.73	4979.34
2575.1	4983.78
2576.47	4992.7
2577.84	4948.99
2579.2	4970.03
2580.57	4956.58
2581.94	4963.22
2583.31	4942.35
2584.67	4967.39
2586.04	4948.09
2587.4	4951.45
2588.77	4940.66
2590.14	4978.96
2591.5	4961.18
2592.87	4939.1
2594.23	4979.65
2595.6	4976.23
2596.96	4977.54
2598.32	4969.4
2599.69	4931.03
2601.05	4953.67
2602.41	4939.4
2603.78	4934.95
2605.14	4945.15
2606.5	4940.35
2607.86	4916.12
2609.23	4916.33
2610.59	4894.73
2611.95	4906.75
2613.31	4896.89
2614.67	4890.38
2616.03	4853.28
2617.4	4859.49
2618.75	4870.38
2620.11	4862.27
2621.48	4868.41
2622.83	4841.23
2624.19	4857.6
2625.55	4852.98
2626.91	4872.23
2628.27	4836.06
2629.63	4827.44
2630.99	4853.93
2632.35	4840.81
2633.7	4842.78
2635.06	4841.2
2636.42	4833.33
2637.77	4829.21
2639.13	4815.67
2640.49	4811.88
2641.84	4841.08
2643.2	4834.13
2644.56	4840.07
2645.91	4824.17
2647.27	4827.02
2648.62	4797.94
2649.98	4792.8
2651.33	4815.11
2652.69	4825.07
2654.04	4835.49
2655.4	4831.31
2656.75	4824.77
2658.1	4804.76
2659.45	4826.79
2660.81	4859.13
2662.16	4838.88
2663.51	4816.9
2664.86	4835.88
2666.22	4832.74
2667.57	4857.85
2668.92	4849.56
2670.27	4848.91
2671.62	4856.79
2672.97	4847.69
2674.32	4848.51
2675.67	4840.82
2677.02	4853.04
2678.37	4830.6
2679.72	4851.64
2681.07	4832.49
2682.42	4810.14
2683.77	4806.41
2685.12	4799.74
2686.47	4796.9
2687.81	4771.11
2689.16	4802.48
2690.51	4814.14
2691.86	4762.27
2693.21	4786.57
2694.55	4790.76
2695.9	4734.11
2697.25	4792.99
2698.59	4784.45
2699.94	4785.85
2701.28	4769.77
2702.63	4809.32
2703.97	4788.19
2705.32	4845.86
2706.66	4851.22
2708.01	4850.94
2709.35	4887.32
2710.7	4938.63
2712.04	4902.81
2713.39	4926.66
2714.73	4922.64
2716.07	4972.55
2717.41	4982.39
2718.76	5010.82
2720.1	5000.73
2721.44	5016.7
2722.78	5034.58
2724.12	5029.55
2725.47	5054.78
2726.81	5009.3
2728.15	5019.36
2729.49	5017.41
2730.83	5011.7
2732.17	4941.28
2733.51	4943.37
2734.85	4876.14
2736.19	4831.29
2737.53	4829.15
2738.87	4768.74
2740.21	4708.1
2741.55	4667.41
2742.88	4659.53
2744.22	4628.09
2745.56	4610.03
2746.9	4571.66
2748.24	4527.98
2749.57	4509.42
2750.91	4471.57
2752.25	4439.5
2753.58	4443.27
2754.92	4443.46
2756.25	4425.03
2757.59	4376.81
2758.93	4387.55
2760.26	4364.95
2761.6	4356.18
2762.93	4348.91
2764.27	4361.41
2765.6	4312.43
2766.93	4290.89
2768.27	4329.35
2769.6	4306.62
2770.94	4288.75
2772.27	4268.04
2773.6	4281
2774.93	4279.94
2776.27	4297.18
2777.6	4290.5
2778.93	4252.99
2780.26	4250.21
2781.59	4250.06
2782.93	4264.96
2784.26	4229.45
2785.59	4260.2
2786.92	4237.63
2788.25	4197.5
2789.58	4241.96
2790.91	4264.83
2792.24	4238.46
2793.57	4268.44
2794.9	4296.58
2796.23	4314.27
2797.56	4286.15
2798.88	4297.74
2800.21	4293.55
2801.54	4303.4
2802.87	4310.57
2804.2	4279.14
2805.52	4262.74
2806.85	4290.5
2808.18	4327.59
2809.5	4320.78
2810.83	4336.88
2812.16	4369.55
2813.48	4390.67
2814.81	4370.62
2816.13	4436.42
2817.46	4449.12
2818.78	4482.63
2820.11	4513.61
2821.43	4567.31
2822.76	4582.88
2824.08	4639.79
2825.4	4703.42
2826.73	4748.21
2828.05	4870.07
2829.37	4947.69
2830.7	5060.48
2832.02	5212.8
2833.34	5353.68
2834.66	5558.03
2835.99	5816.84
2837.31	6149.18
2838.63	6530.21
2839.95	7015.1
2841.27	7617.3
2842.59	8392.64
2843.91	9354.59
2845.23	10414
2846.55	11554.3
2847.87	12618.7
2849.19	13467.9
2850.51	14028.2
2851.83	14318
2853.15	14271.8
2854.47	14005.7
2855.79	13694.7
2857.11	13329.3
2858.43	13000.1
2859.74	12697.1
2861.06	12419.6
2862.38	12114.7
2863.69	11917.9
2865.01	11731.8
2866.33	11580.2
2867.65	11564.8
2868.96	11611.2
2870.28	11738.6
2871.59	11880.1
2872.91	12073.9
2874.22	12277.9
2875.54	12409.3
2876.85	12561.4
2878.17	12684.7
2879.48	12822
2880.8	13047
2882.11	13170.8
2883.42	13255.3
2884.74	13304.4
2886.05	13280.1
2887.36	13319.6
2888.68	13302.9
2889.99	13320.2
2891.3	13349.2
2892.61	13312.1
2893.93	13289.4
2895.24	13238.9
2896.55	13262.5
2897.86	13212.6
2899.17	13243.2
2900.48	13224.2
2901.79	13181.1
2903.1	13141.4
2904.41	13065.3
2905.72	13000.9
2907.03	12948
2908.34	12917.9
2909.65	12868.1
2910.96	12837.9
2912.27	12782.6
2913.57	12765.7
2914.88	12727.2
2916.19	12660
2917.5	12609.5
2918.81	12558.7
2920.11	12520.4
2921.42	12450.7
2922.73	12495
2924.03	12458.5
2925.34	12462.4
2926.64	12521.8
2927.95	12515.2
2929.26	12503.3
2930.56	12471.9
2931.87	12440.4
2933.17	12464.5
2934.48	12324.9
2935.78	12267.2
2937.09	12121.2
2938.39	11925.9
2939.69	11613.5
2941	11280.8
2942.3	10804.2
2943.6	10340.4
2944.91	9902.67
2946.21	9467.09
2947.51	9081.29
2948.81	8723.07
2950.12	8456.36
2951.42	8287.36
2952.72	8110.64
2954.02	8006.96
2955.32	7957.56
2956.62	7864.11
2957.92	7847.4
2959.22	7734.94
2960.52	7600.14
2961.82	7515.43
2963.12	7440.57
2964.42	7239.55
2965.72	7090.28
2967.02	6937.93
2968.32	6802.17
2969.62	6602.53
2970.92	6466.56
2972.21	6275.9
2973.51	6119.32
2974.81	5974.01
2976.11	5796.53
2977.4	5707.5
2978.7	5574.24
2980	5477.25
2981.29	5378.8
2982.59	5288.55
2983.89	5232.5
2985.18	5131.79
2986.48	5054.94
2987.77	5026.15
2989.07	4919.82
2990.36	4903.05
2991.66	4870.91
2992.95	4860.38
2994.25	4792.44
2995.54	4822.56
2996.84	4831.68
2998.13	4777.83
2999.42	4777.06
3000.72	4768.39
3002.01	4768.31
3003.3	4785.64
3004.59	4823.65
3005.89	4809.63
3007.18	4751.31
3008.47	4752.89
3009.76	4703.27
3011.05	4700.53
3012.34	4562.24
3013.63	4556.17
3014.93	4473.12
3016.22	4441.53
3017.5	4349.53
3018.8	4280.69
3020.09	4256.41
3021.38	4174.92
3022.67	4166.6
3023.95	4130.99
3025.24	4068.29
3026.53	4029.64
3027.82	4015.66
3029.11	3995.98
3030.4	3959.27
3031.68	3956.22
3032.97	3943.92
3034.26	3925.86
3035.54	3905.14
3036.83	3885.59
3038.12	3873.05
3039.4	3903.44
3040.69	3887.69
3041.98	3866.6
3043.26	3872.58
3044.55	3855.7
3045.83	3837.27
3047.12	3867.73
3048.4	3894.79
3049.69	3867.61
3050.97	3884.41
3052.26	3873.04
3053.54	3878.65
3054.82	3881.37
3056.11	3865.02
3057.39	3884.19
3058.67	3905.32
3059.96	3907.61
3061.24	3885.51
3062.52	3917.34
3063.8	3887.88
3065.09	3871.36
3066.37	3910.79
3067.65	3918.91
3068.93	3914.76
3070.21	3916.24
3071.49	3900.44
3072.77	3928.72
3074.05	3896.87
3075.33	3889.05
3076.61	3918.56
3077.89	3911.41
3079.17	3888.89
3080.45	3886.35
3081.73	3913.73
3083.01	3895.5
3084.29	3891.92
3085.57	3923.9
3086.84	3911.52
3088.12	3906.28
3089.4	3917.64
3090.68	3916.47
3091.95	3946.85
3093.23	3977.15
3094.51	3965.42
3095.79	3933.01
3097.06	3960.59
3098.34	3977.74
3099.61	4006.43
3100.89	3973.89
3102.17	3976.98
3103.44	4010.11
3104.72	4018.54
3105.99	4035.78
3107.27	4068.3
3108.54	4080.83
3109.81	4082.81
3111.09	4054.31
3112.36	4106.86
3113.63	4115.88
3114.91	4123.62
3116.18	4119.77
3117.46	4159.16
3118.73	4174.94
3120	4179.76
3121.27	4199.8
3122.54	4220.11
3123.82	4211.95
3125.09	4243.58
3126.36	4257.09
3127.63	4234.15
3128.9	4284.06
3130.17	4295.83
3131.44	4313.23
3132.71	4346.08
3133.98	4344.58
3135.25	4405.03
3136.52	4401.06
3137.79	4400.87
3139.06	4424.84
3140.33	4426.19
3141.6	4436.71
3142.86	4464.63
3144.13	4458.1
3145.4	4467.78
3146.67	4523.54
3147.94	4541.65
3149.2	4541.37
3150.47	4551.44
3151.74	4575.55
3153	4567.96
3154.27	4635.45
3155.54	4649.29
3156.8	4650.82
3158.07	4646.26
3159.34	4646.43
3160.6	4694.5
3161.86	4708.17
3163.13	4686.39
3164.4	4720.63
3165.66	4747.3
3166.92	4787.58
3168.19	4812.51
3169.45	4781.42
3170.72	4776.93
3171.98	4773.26
3173.24	4776.93
3174.5	4767.59
3175.77	4755.07
3177.03	4762.06
3178.29	4757.23
3179.56	4705.98
3180.82	4743.45
3182.08	4712.98
3183.34	4705.89
3184.6	4707.19
3185.86	4692.81
3187.12	4679.32
3188.38	4698.99
3189.64	4670.44
3190.9	4666.47
3192.16	4657.07
3193.42	4657.57
3194.68	4657.88
3195.94	4651.23
3197.2	4605.6
3198.46	4615.95
3199.72	4583
3200.98	4572.13
3202.24	4568.51
3203.49	4562.62
3204.75	4567.14
3206.01	4521.58
3207.27	4541.18
3208.52	4517.79
3209.78	4504.52
3211.04	4479.48
3212.29	4485.18
3213.55	4451.19
3214.81	4446.1
3216.06	4434.04
3217.32	4400.05
3218.57	4381.49
3219.83	4378.57
3221.08	4345.63
3222.34	4342.55
3223.59	4338.08
3224.85	4312.49
3226.1	4294.68
3227.35	4292.01
3228.61	4278.98
3229.86	4247.92
3231.11	4245.6
3232.37	4222.99
3233.62	4202.83
3234.87	4183.06
3236.12	4163.9
3237.38	4173.06
3238.63	4152.57
3239.88	4119.98
3241.13	4092.67
3242.38	4097.63
3243.63	4055.84
3244.89	4041.36
3246.14	4027.02
3247.39	4014.09
3248.64	3991.13
3249.89	3969.15
3251.14	3954.27
3252.39	3941.2
3253.64	3922.24
3254.88	3894.83
3256.13	3875.45
3257.38	3851.63
3258.63	3836.31
3259.88	3795.17
3261.13	3768.29
3262.37	3765.15
3263.62	3759.88
3264.87	3739.2
3266.12	3710.99
3267.36	3697.8
3268.61	3684.56
3269.86	3675.42
3271.1	3663.14
3272.35	3648.05
3273.6	3617.23
3274.84	3593.5
3276.09	3599.45
3277.33	3573.55
3278.58	3523.54
3279.82	3500.4
3281.07	3490.11
3282.31	3470.71
3283.56	3449.24
3284.8	3442.95
3286.04	3432.56
3287.29	3417.67
3288.53	3395.32
3289.77	3383.16
3291.02	3358.68
3292.26	3321.99
3292.9	3304.23
3294.15	3288.56
3295.39	3285.03
3296.64	3262.75
3297.89	3251.83
3299.14	3225.26
3300.38	3193.84
3301.63	3197.97
3302.88	3182.89
3304.12	3177.53
3305.37	3185.03
3306.62	3130.4
3307.86	3142.87
3309.11	3114.13
3310.35	3081.93
3311.6	3077.96
3312.84	3069.3
3314.09	3083.96
3315.34	3035.73
3316.58	3016.31
3317.82	2978.21
3319.07	2981
3320.31	2949.54
3321.56	2945.45
3322.8	2968.96
3324.04	2945.64
3325.29	2934.1
3326.53	2924.22
3327.77	2878.58
3329.01	2862.67
3330.25	2842.67
3331.5	2852.59
3332.74	2850.15
3333.98	2803.12
3335.22	2806.17
3336.46	2766.64
3337.7	2784.12
3338.94	2719.25
3340.19	2748.16
3341.42	2717.32
3342.67	2697.95
3343.9	2669.8
3345.15	2673.18
3346.38	2685.64
3347.62	2646.38
3348.86	2626.03
3350.1	2613.18
3351.34	2598.17
3352.58	2566.55
3353.82	2545.82
3355.06	2522.59
3356.29	2522.63
3357.53	2523.12
3358.77	2518.13
3360	2478.49
3361.24	2479.83
3362.48	2452.39
3363.71	2457.31
3364.95	2453.01
3366.19	2420.34
3367.42	2384.73
3368.66	2378.61
3369.89	2386.34
3371.13	2377.64
3372.36	2328.6
3373.6	2338.69
3374.83	2347.74
3376.07	2323.17
3377.3	2302.46
3378.54	2258.03
3379.77	2277.13
3381	2264.98
3382.24	2228.12
3383.47	2237.95
3384.7	2212.95
3385.94	2184.29
3387.17	2179.22
3388.4	2167.85
3389.63	2132.02
3390.87	2124.76
3392.1	2096.41
3393.33	2101.72
3394.56	2084.79
3395.79	2068.23
3397.02	2078.53
3398.25	2058.32
3399.48	2026.86
3400.71	2013.8
3401.94	2011.57
3403.17	1968.51
3404.4	1971.54
3405.63	1944.26
3406.86	1926.75
3408.09	1927.41
3409.32	1905.37
3410.55	1875.5
3411.78	1887.85
3413	1842.23
3414.23	1826.34
3415.46	1802.72
3416.69	1816.97
3417.92	1763.97
3419.14	1780.9
3420.37	1769.98
3421.6	1714.18
3422.82	1716.09
3424.05	1693.04
3425.27	1682.39
3426.5	1654.24
3427.73	1631.6
3428.95	1605.03
3430.18	1624.43
3431.4	1588.1
3432.63	1531.7
3433.85	1554.96
3435.08	1518.13
3436.3	1496.07
3437.53	1473.89
3438.75	1471.18
3439.97	1457.28
3441.2	1424.45
3442.42	1385.96
3443.64	1385.23
3444.86	1364.57
3446.09	1346.12
3447.31	1326.19
3448.53	1334.74
3449.75	1269.49
3450.98	1257.24
3452.2	1236.54
3453.42	1213.19
3454.64	1187.08
3455.86	1170.57
3457.08	1159.77
3458.3	1123.94
3459.52	1125.73
3460.74	1091.43
3461.96	1076.67
3463.18	1045.88
3464.4	1026.98
3465.62	989.396
3466.84	977.497
3468.06	966.96
3469.28	933.21
3470.5	878.241
3471.72	899.138
3472.93	843.237
3474.15	844.038
3475.37	794.875
3476.59	789.491
3477.8	751.453
3479.02	753.794
3480.24	715.461
3481.45	698.173
3482.67	645.199
3483.89	607.165
3485.1	632.587
3486.32	578.926
3487.53	582.369
3488.75	548.482
3489.96	501.797
3491.18	477.145
3492.39	460.732
3493.61	445.179
3494.82	412.888
3496.04	360.68
3497.25	352.45
3498.47	347.309
3499.68	331.418
