#Acq. time (s)=	8
#Accumulations=	15
#Range (cm-¹)=	400...3500
#Windows=	3
#Auto scanning=	Off
#Autofocus=	Off
#AutoExposure=	Off
#Spike filter=	Multiple accum.
#Delay time (s)=	0
#Binning=	1
#Readout mode=	Signal
#DeNoise=	Off
#ICS correction=	On
#Dark correction=	Off
#Inst. Process=	Off
#Detector Gain=	Best Dynamic Range
#Detector ADC=	45 kHz       
#Detector temperature (°C)=	-60.1
#Instrument=	LabRAM HR Evol
#Detector=	Syncerity OE
#Objective=	x50_VIS_LWD
#Grating=	600 (500nm)
#ND Filter=	50%
#Laser=	532nm_Edge
#Hole=	199.981
#Range=	Visible
#E-Cal_Neon=	0
#StageXY=	75x50mm Scan+
#StageZ=	Z motor
#X (µm)=	0
#Y (µm)=	0
#Z (µm)=	1171.8
#Spectral res.(cm-¹)=	12.8
#Full time(mm:ss)=	6:23
#AC=	Calibrated 2025-06-30 10:26
#Project=	
#Sample=	
#Site=	
#Title=	D_99
#Remark=	
#Date=	30.06.2025 16:59 (India Standard Time)
#Acquired=	30.06.2025 16:59:15 (India Standard Time)
#AxisType[0]=Intens
#AxisUnit[0]=Cnt
#AxisType[1]=Spectr
#AxisUnit[1]=1/cm
400.17	16251.7
401.945	16212.5
403.717	16208.7
405.491	16170.9
407.263	16172.4
409.036	16172.3
410.807	16152.7
412.58	16131.6
414.35	16077.2
416.122	16126.7
417.892	16106.4
419.663	16100.5
421.432	16065.3
423.203	16067.7
424.971	16097.2
426.741	16059.3
428.509	16074.2
430.276	16092.4
432.045	16064.4
433.812	16015.3
435.58	16054.5
437.346	16026
439.111	15975.5
440.879	15954.8
442.643	15907.8
444.408	15968.3
446.174	15892.3
447.938	15922.2
449.701	15902.2
451.467	15885.4
453.229	15890.2
454.992	15869.9
456.756	15858.3
458.518	15868.7
460.279	15828.7
462.043	15754.2
463.803	15759.6
465.564	15760.2
467.326	15761
469.086	15710.1
470.845	15726.6
472.604	15691
474.365	15644.7
476.123	15661.8
477.882	15636.6
479.639	15648.1
481.399	15618.2
483.156	15633.8
484.913	15561.1
486.669	15605.4
488.425	15655.4
490.183	15628.8
491.938	15549.5
493.693	15594.4
495.448	15602.8
497.202	15576.7
498.956	15579.6
500.712	15645
502.465	15592.3
504.218	15622.6
505.971	15610
507.723	15635.5
509.475	15638.6
511.227	15610.3
512.981	15617.8
514.732	15636.8
516.482	15686.8
518.233	15641.6
519.983	15614.5
521.732	15539.4
523.482	15574.1
525.231	15499.1
526.979	15513.6
528.728	15432.6
530.476	15462.3
532.223	15416.2
533.971	15362.8
535.718	15336.2
537.464	15359.9
539.211	15323.9
540.956	15284.4
542.702	15216.8
544.447	15242.1
546.192	15210.1
547.937	15207.3
549.681	15146.9
551.425	15149.1
553.169	15180.2
554.912	15175.1
556.655	15162.1
558.398	15102.6
560.14	15086.4
561.882	15102.8
563.624	15057.4
565.365	15098.8
567.106	15059.4
568.847	15096.9
570.585	15116
572.325	15066.6
574.065	15114.8
575.804	15104.8
577.543	15128.3
579.282	15182.6
581.02	15197.6
582.756	15204.5
584.494	15255.1
586.231	15235.6
587.968	15214.2
589.705	15289.1
591.441	15273.2
593.175	15261.1
594.911	15320.3
596.646	15350.8
598.381	15376.5
600.116	15334.1
601.848	15341.8
603.582	15353.3
605.316	15374.7
607.049	15364.7
608.78	15319
610.513	15247.8
612.245	15233.2
613.977	15195.5
615.707	15148.9
617.438	15139.1
619.17	15115.3
620.898	15037.1
622.629	15001.6
624.359	15045.7
626.086	14933.7
627.816	14930.1
629.545	14950.4
631.272	14935.3
633	14930
634.728	14862.8
636.454	14858.3
638.181	14880.8
639.908	14883.2
641.633	14936.9
643.36	14852.4
645.084	14862.8
646.81	14841.4
648.535	14768.5
650.258	14695.4
651.983	14754.7
653.705	14757.6
655.43	14719.2
657.153	14696.5
658.875	14689
660.598	14666.8
662.319	14701.7
664.041	14636
665.762	14640.5
667.483	14639.8
669.203	14624.6
670.924	14624.9
672.643	14637.2
674.364	14598.6
676.082	14537.2
677.802	14523.7
679.519	14563.6
681.238	14622.4
682.955	14603.8
684.674	14596.8
686.39	14583.9
688.106	14562.8
689.824	14544.3
691.539	14639.1
693.256	14611.9
694.971	14575
696.685	14647.9
698.401	14631.8
700.115	14639.2
701.83	14680.4
703.543	14610.2
705.256	14579.7
706.97	14651.9
708.682	14645.9
710.394	14663.5
712.107	14585.1
713.818	14721
715.529	14684.1
717.241	14716.8
718.952	14762.8
720.661	14811.7
722.373	14896.4
724.082	14824.5
725.791	14842.6
727.501	14808.3
729.209	14781.9
730.917	14791
732.625	14768.7
734.334	14715.3
736.041	14744.2
737.747	14748.1
739.453	14736
741.161	14666
742.867	14655.5
744.572	14614.7
746.277	14665.5
747.982	14645.2
749.688	14650
751.392	14706
753.096	14683.1
754.799	14763.8
756.502	14764.2
758.205	14725.4
759.909	14755.2
761.611	14705.8
763.313	14716.4
765.014	14779.5
766.715	14755.5
768.416	14762.5
770.116	14807.3
771.816	14843.6
773.516	14789.8
775.218	14779.6
776.917	14805.6
778.616	14761.1
780.314	14779.7
782.012	14766.3
783.71	14810.7
785.408	14790.5
787.105	14762.8
788.802	14770.4
790.498	14821.2
792.195	14837.8
793.891	14783.8
795.586	14804.6
797.281	14870.1
798.977	14926.6
800.671	14937.1
802.365	14966.5
804.06	14983.6
805.753	15080.7
807.447	15113.1
809.14	15071.8
810.832	15099.3
812.525	15161.4
814.217	15203.7
815.907	15270.5
817.598	15308.2
819.289	15389.5
820.98	15434.3
822.671	15525.7
824.361	15633.1
826.051	15715.6
827.74	15767.9
829.43	15796.4
831.117	15912.7
832.805	15971.7
834.494	15908.3
836.182	16062.9
837.869	16086.6
839.557	16138.9
841.242	16226.6
842.928	16323.4
844.615	16303.8
846.301	16447.1
847.987	16382.4
849.67	16409.9
851.355	16511.6
853.04	16479.3
854.724	16467.3
856.407	16491.3
858.091	16510
859.774	16584.3
861.457	16595
863.138	16774.4
864.821	16803.5
866.503	16836.6
868.183	16931.2
869.865	16956.7
871.546	16890.9
873.225	16900.7
874.906	16813.1
876.586	16730.6
878.264	16686.7
879.944	16572
881.624	16537.2
883.301	16514.4
884.98	16503.5
886.658	16537.4
888.334	16621.9
890.012	16589
891.688	16579.4
893.365	16468.1
895.042	16329.6
896.717	16138
898.393	16092.8
900.067	15980.3
901.743	15826.7
903.416	15768.4
905.091	15724.7
906.766	15608.7
908.438	15596
910.112	15509
911.784	15499.8
913.458	15514.5
915.129	15474.3
916.802	15484.7
918.472	15489.8
920.145	15442.4
921.815	15338.5
923.484	15324.4
925.156	15289.3
926.825	15191.7
928.495	15193.9
930.164	15134.7
931.834	15073.4
933.501	15055.2
935.171	15056.8
936.838	15003.2
938.505	15001
940.173	15051.8
941.84	14996.8
943.505	14948.3
945.173	14989.7
946.838	14992.3
948.505	14999.6
950.17	15067.7
951.834	15068.8
953.5	15050.7
955.164	15001.4
956.827	15026.6
958.492	15043.7
960.155	15087.3
961.818	15099.7
963.48	15153
965.144	15095.8
966.805	15039.9
968.467	15041.1
970.128	15018
971.79	14972.9
973.45	14876
975.11	14869.8
976.77	14811.8
978.432	14735.2
980.091	14757.5
981.749	14721.8
983.408	14721.8
985.068	14706.6
986.726	14772.5
988.383	14780.8
990.041	14875.3
991.698	14881.5
993.354	14997.4
995.012	15155.1
996.668	15383.2
998.324	15633.3
999.979	15935.9
1001.63	16232.8
1003.29	16488.5
1004.94	16560.6
1006.6	16450.2
1008.25	16266.5
1009.91	16045
1011.56	15859.7
1013.21	15710
1014.87	15624.9
1016.52	15558.4
1018.17	15521.9
1019.82	15467.7
1021.47	15442.1
1023.12	15439.2
1024.78	15382.3
1026.43	15295.2
1028.08	15314.7
1029.73	15302.6
1031.38	15265.9
1033.02	15225.3
1034.67	15186.2
1036.32	15171.9
1037.97	15195.2
1039.62	15201.7
1041.27	15164.9
1042.91	15214
1044.56	15192.6
1046.21	15209.7
1047.85	15252.6
1049.5	15212.2
1051.14	15282.6
1052.79	15348.2
1054.43	15447
1056.08	15616.8
1057.72	15815.9
1059.37	15991.3
1061.01	16258.8
1062.65	16462.3
1064.3	16568
1065.94	16567.4
1067.58	16451.6
1069.23	16381
1070.87	16319.2
1072.51	16495
1074.15	16538.8
1075.79	16677.3
1077.43	16779.1
1079.07	16869.3
1080.71	16860.8
1082.35	16829.1
1083.99	16730.6
1085.63	16638
1087.27	16512
1088.91	16357.6
1090.55	16239.2
1092.18	15970.9
1093.82	15830.9
1095.46	15566.5
1097.1	15400.3
1098.73	15123.9
1100.37	15012.4
1102	14872
1103.64	14692.4
1105.27	14564.7
1106.91	14627.5
1108.54	14574.8
1110.18	14586.6
1111.81	14706.7
1113.44	14791.7
1115.08	14903.1
1116.71	15055.4
1118.34	15223
1119.98	15317.5
1121.61	15392.5
1123.24	15413.2
1124.87	15401.2
1126.5	15282.2
1128.13	15098.8
1129.76	14839.4
1131.39	14671
1133.02	14462.8
1134.65	14412
1136.28	14362.1
1137.91	14405.5
1139.54	14448.5
1141.17	14578.5
1142.8	14814.7
1144.42	15078.7
1146.05	15390.9
1147.68	15822
1149.3	16319.6
1150.93	17041.1
1152.56	17822.7
1154.18	18598
1155.81	19090.4
1157.43	19179.7
1159.06	18708.8
1160.68	17836.3
1162.31	16769.5
1163.93	15894.8
1165.55	15238.8
1167.18	14785.1
1168.8	14506.9
1170.42	14329.1
1172.04	14299.5
1173.67	14213.8
1175.29	14108.3
1176.91	14011.8
1178.53	13906.2
1180.15	13865.2
1181.77	13894.9
1183.39	13969.9
1185.01	14054.5
1186.63	14066.6
1188.25	14128.9
1189.87	14194.8
1191.49	14156.5
1193.11	14135.1
1194.72	14103.3
1196.34	13956.9
1197.96	13927.4
1199.58	13769.7
1201.19	13649.7
1202.81	13535.3
1204.43	13450.8
1206.04	13398.9
1207.66	13436.1
1209.27	13402.7
1210.88	13405.2
1212.5	13386.7
1214.11	13367.8
1215.73	13234.6
1217.34	13207.4
1218.95	13126.2
1220.57	13073.8
1222.18	13023.9
1223.79	12984.8
1225.4	13023.8
1227.02	13021.3
1228.63	13002.8
1230.24	12966.7
1231.85	13073.8
1233.46	13065.5
1235.07	13126.3
1236.68	13116.3
1238.29	13158.7
1239.9	13209.1
1241.51	13327.3
1243.12	13396.9
1244.72	13468.7
1246.33	13581.7
1247.94	13599
1249.55	13720
1251.15	13749.5
1252.76	13766.7
1254.37	13946.8
1255.97	14016.2
1257.58	14081.7
1259.19	14171.9
1260.79	14233.6
1262.39	14322
1264	14394
1265.6	14468.9
1267.21	14472.1
1268.81	14506.8
1270.41	14478
1272.02	14417.3
1273.62	14332.1
1275.22	14256.9
1276.82	14254.5
1278.43	14249.1
1280.03	14306.7
1281.63	14313.1
1283.23	14431.6
1284.83	14435.5
1286.43	14514.4
1288.03	14667.5
1289.63	14904
1291.23	15187.8
1292.83	15604.1
1294.43	16077
1296.03	16616.4
1297.62	17107.8
1299.22	17498.4
1300.82	17686.7
1302.42	17731.3
1304.01	17567.6
1305.61	17368.5
1307.21	16974.4
1308.8	16620.6
1310.4	16211.1
1311.99	15840.3
1313.59	15413.9
1315.18	15053.8
1316.78	14717.3
1318.37	14448.5
1319.96	14190.9
1321.56	13942.4
1323.15	13760.9
1324.74	13575.7
1326.34	13433.8
1327.93	13303.6
1329.52	13135.1
1331.11	13007.6
1332.7	12878.7
1334.3	12762.3
1335.89	12708.6
1337.48	12694.2
1339.07	12702.9
1340.66	12656
1342.25	12604.5
1343.84	12541.3
1345.42	12547.5
1347.01	12540.8
1348.6	12511.2
1350.19	12504.4
1351.78	12465.5
1353.37	12431.1
1354.95	12385.6
1356.54	12315.3
1358.13	12319.3
1359.71	12289.1
1361.3	12257.7
1362.88	12298.6
1364.47	12299.4
1366.05	12299.4
1367.64	12278.5
1369.22	12270.9
1370.81	12190.9
1372.39	12115.3
1373.97	12044
1375.56	11946.6
1377.14	11839.6
1378.72	11816.1
1380.31	11767.2
1381.89	11695.5
1383.47	11641.7
1385.05	11647.5
1386.63	11661.7
1388.21	11636.5
1389.79	11619
1391.37	11632.9
1392.95	11604.9
1394.53	11604.6
1396.11	11613.2
1397.69	11572.1
1399.27	11609
1400.85	11651
1402.42	11680
1404	11692.2
1405.58	11651.1
1407.16	11749.6
1408.73	11753.6
1410.31	11875.8
1411.89	11993.1
1413.46	12096.6
1415.04	12337.7
1416.61	12552.9
1418.19	12680.2
1419.76	12825.3
1421.34	12950
1422.91	13148.8
1424.49	13365.8
1426.06	13734.7
1427.63	14335
1429.21	15076.4
1430.78	16054.4
1432.35	17207.8
1433.92	18283.5
1435.49	19248.8
1437.07	20011.8
1438.64	20351.4
1440.21	20444.1
1441.78	20230.5
1443.35	19937.6
1444.92	19545.9
1446.49	19200.3
1448.06	18903
1449.63	18638
1451.2	18364.1
1452.76	18155.7
1454.33	17919.4
1455.9	17721.3
1457.47	17421.4
1459.03	17081.7
1460.6	16714
1462.17	16199.1
1463.74	15723.3
1465.3	15239.3
1466.87	14806.7
1468.43	14335
1470	13884.3
1471.56	13485.4
1473.13	13126.2
1474.69	12784.4
1476.26	12501.8
1477.82	12306
1479.38	12070.6
1480.94	11966.9
1482.51	11819.8
1484.07	11680.1
1485.63	11636.3
1487.2	11552
1488.76	11548.7
1490.32	11519.5
1491.88	11511.4
1493.44	11542.3
1495	11569
1496.56	11588
1498.12	11651.4
1499.68	11740.4
1501.24	11842.5
1502.8	11978.1
1504.36	12131.7
1505.91	12394.4
1507.47	12623.1
1509.03	12980.7
1510.59	13398.7
1512.14	13870.5
1513.7	14318.9
1515.26	14811.9
1516.81	15328.1
1518.37	15773.8
1519.93	16062.9
1521.48	16202.3
1523.04	16232.6
1524.59	16033.5
1526.15	15722.2
1527.7	15162.9
1529.25	14456.8
1530.81	13798.8
1532.36	13125.6
1533.91	12528.6
1535.47	12016.2
1537.02	11623
1538.57	11305.9
1540.12	11101.8
1541.67	10915.6
1543.23	10743.5
1544.78	10669
1546.33	10572.8
1547.88	10452.7
1549.43	10391.5
1550.98	10355.2
1552.53	10314.5
1554.08	10264.8
1555.63	10276.5
1557.18	10239.9
1558.72	10177.1
1560.27	10146.1
1561.82	10097.2
1563.37	10123.2
1564.91	10084.9
1566.46	10067.3
1568.01	10090.9
1569.55	10084.7
1571.1	10006.9
1572.64	10079.5
1574.19	10033.9
1575.74	10031.7
1577.28	10036.9
1578.83	10025.1
1580.37	10006.4
1581.91	10061.3
1583.46	10035.5
1585	10012.6
1586.54	10016.1
1588.09	10018.3
1589.63	10005.4
1591.17	9992.15
1592.71	10017.8
1594.25	9961.6
1595.79	10030.6
1597.34	9997.36
1598.88	10001.1
1600.42	9993.87
1601.96	9982.8
1603.5	9991.4
1605.04	9958.56
1606.58	9963.82
1608.12	9894.53
1609.65	9957.72
1611.19	9878.6
1612.73	9833.06
1614.27	9849.46
1615.8	9831.57
1617.34	9842.07
1618.88	9810.08
1620.42	9831.77
1621.95	9802.7
1623.49	9825.73
1625.03	9849.8
1626.56	9842.81
1628.1	9890.2
1629.63	9911.58
1631.17	9974.9
1632.7	10011.4
1634.23	10080
1635.77	10167.4
1637.3	10234
1638.83	10308.8
1640.37	10417.8
1641.9	10518
1643.43	10658
1644.96	10936.3
1646.5	11335.5
1648.03	11772.6
1649.56	12368
1651.09	12879.8
1652.62	13298.2
1654.15	13409.1
1655.68	13237.7
1657.21	12865.4
1658.74	12390.9
1660.27	11848.4
1661.8	11435.3
1663.32	11051.1
1664.85	10843.4
1666.38	10664.1
1667.91	10545.7
1669.44	10453.3
1670.96	10308.5
1672.49	10152.7
1674.02	9997.87
1675.54	9798.05
1677.07	9706.06
1678.59	9592.33
1680.12	9506.49
1681.65	9391.25
1683.17	9358.28
1684.69	9326.38
1686.22	9261.29
1687.74	9207.86
1689.27	9206.19
1690.79	9126.63
1692.31	9133.88
1693.84	9106.58
1695.36	9062.72
1696.88	9038.19
1698.4	8966.77
1699.92	8956.26
1701.45	8928.3
1702.97	8910.32
1704.49	8938.37
1706.01	8875.19
1707.53	8874.61
1709.05	8828.56
1710.57	8847.68
1712.09	8825.24
1713.61	8824.66
1715.13	8820.8
1716.65	8819.15
1718.16	8786.16
1719.68	8837.38
1721.2	8821.98
1722.72	8855.2
1724.23	8888.04
1725.75	8927.37
1727.27	8944.7
1728.78	9000.13
1730.3	9127.11
1731.82	9261.85
1733.33	9385.02
1734.84	9500.52
1736.36	9644.52
1737.87	9807.27
1739.39	9927.58
1740.9	10079.5
1742.42	10157.7
1743.93	10256.4
1745.44	10293.3
1746.96	10343.6
1748.47	10274.3
1749.98	10224.4
1751.49	10068.9
1753	9918.32
1754.51	9718.09
1756.03	9514.78
1757.54	9305.1
1759.05	9135.04
1760.56	8926.88
1762.07	8816.91
1763.58	8656.37
1765.09	8588.17
1766.6	8562.07
1768.11	8466.6
1769.61	8458.12
1771.12	8432.69
1772.63	8371.14
1774.14	8342.05
1775.65	8337.84
1777.15	8340.98
1778.66	8345.05
1780.17	8282.01
1781.67	8251.5
1783.18	8261.69
1784.68	8235.62
1786.19	8247.49
1787.7	8268.62
1789.2	8250
1790.71	8219.82
1792.21	8162.66
1793.71	8169.25
1795.22	8159.57
1796.72	8167.66
1798.22	8119.63
1799.73	8156.01
1801.23	8144.4
1802.73	8085.63
1804.23	8100.21
1805.74	8132
1807.24	8103.54
1808.74	8077.93
1810.24	8089.17
1811.74	8058.39
1813.24	8067.21
1814.74	8040.11
1816.24	8032.25
1817.74	8035.25
1819.24	8009.31
1820.74	7958.82
1822.24	7993.83
1823.74	7988.32
1825.23	7969.46
1826.73	7981.18
1828.23	7954.72
1829.73	7928.38
1831.22	7919.03
1832.72	7934.8
1834.22	7908.44
1835.71	7917.27
1837.21	7885.94
1838.71	7928.24
1840.2	7897.12
1841.7	7886.54
1843.19	7911.78
1844.68	7885.91
1846.18	7874.97
1847.67	7869.34
1849.17	7864.99
1850.66	7878.89
1852.15	7827.55
1853.65	7805.63
1855.14	7818.62
1856.63	7770.22
1858.12	7791.6
1859.62	7799.37
1861.11	7757.96
1862.6	7746.76
1864.09	7790.14
1865.58	7750.24
1867.07	7760.37
1868.56	7717.59
1870.05	7722.66
1871.54	7702.76
1873.03	7688.85
1874.52	7687.29
1876.01	7712.88
1877.49	7706.73
1878.98	7663.67
1880.47	7656.99
1881.96	7717.41
1883.45	7683.65
1884.93	7627.7
1886.42	7622.5
1887.91	7631.05
1889.39	7642.82
1890.88	7589.84
1892.36	7585.43
1893.85	7575.68
1895.34	7581.08
1896.82	7529.36
1898.3	7555.32
1899.79	7516.18
1901.27	7472.83
1902.76	7484.16
1904.24	7454.39
1905.72	7371.08
1907.2	7382.13
1908.69	7347.55
1910.17	7321.33
1911.65	7291.11
1913.13	7270.36
1914.62	7228.47
1916.1	7200.71
1917.58	7155.52
1919.06	7139.4
1920.54	7089.89
1922.02	7081.25
1923.5	7065.69
1924.98	7041.64
1926.46	6997.67
1927.94	6956.02
1929.42	6957.68
1930.89	6944.31
1932.37	6905.73
1933.85	6896.65
1935.33	6847.44
1936.81	6812.9
1938.28	6805.62
1939.76	6769.75
1941.24	6752
1942.71	6733.14
1944.19	6689.74
1945.66	6684.66
1947.14	6664.21
1948.61	6634.53
1950.09	6606.64
1951.57	6554.55
1953.04	6524.67
1954.51	6489.09
1955.99	6488.26
1957.46	6444.68
1958.93	6420.56
1960.41	6418.82
1961.88	6372.06
1963.35	6364.3
1964.82	6337.4
1966.3	6338.47
1967.77	6291
1969.24	6275.57
1970.71	6227.25
1972.18	6228.41
1973.65	6196.4
1975.12	6184.81
1976.59	6176.01
1978.06	6164.56
1979.53	6130.68
1981	6123.34
1982.47	6083.57
1983.94	6070.34
1985.41	6043.41
1986.87	6028.15
1988.34	6001.75
1989.81	5975.79
1991.28	5944.61
1992.74	5919.86
1994.21	5886.98
1995.68	5880.86
1997.14	5859.54
1998.61	5837.57
2000.07	5821.45
2001.54	5786.34
2003.01	5772.24
2004.47	5764.82
2005.94	5734.11
2007.4	5717.17
2008.86	5720.29
2010.33	5691.37
2011.79	5691.11
2013.25	5665.02
2014.72	5647.9
2016.18	5627.95
2017.64	5618.76
2019.1	5586.12
2020.57	5572.3
2022.03	5557.57
2023.49	5539.23
2024.95	5517.09
2026.41	5501.02
2027.87	5481.56
2029.33	5462.43
2030.79	5447.51
2032.25	5434.93
2033.71	5429.87
2035.17	5409.83
2036.63	5395.3
2038.09	5372.92
2039.54	5362.7
2041	5366.93
2042.46	5340.29
2043.92	5321.36
2045.38	5310.98
2045.86	5303.93
2047.32	5307.58
2048.79	5306.33
2050.25	5307.22
2051.71	5275.13
2053.17	5280.11
2054.64	5273.45
2056.1	5267.07
2057.56	5257.31
2059.02	5263.23
2060.48	5244.53
2061.94	5229.27
2063.4	5248.15
2064.86	5258.15
2066.32	5234.02
2067.78	5249.24
2069.24	5221.38
2070.7	5229.54
2072.16	5214.33
2073.62	5204.66
2075.08	5198.78
2076.54	5190.98
2077.99	5197.24
2079.45	5208.79
2080.91	5221.64
2082.37	5196.61
2083.82	5193.97
2085.28	5199.12
2086.74	5159.06
2088.19	5184.71
2089.65	5147.63
2091.1	5142.42
2092.56	5144.48
2094.01	5141.91
2095.47	5139.45
2096.92	5142.71
2098.38	5134.33
2099.83	5093.67
2101.29	5126.36
2102.74	5095.65
2104.19	5123.74
2105.64	5122.74
2107.1	5091.25
2108.55	5080.86
2110	5098.47
2111.45	5096.99
2112.91	5068.07
2114.36	5072.49
2115.81	5067.75
2117.26	5062.64
2118.71	5069.33
2120.16	5068.91
2121.61	5023.02
2123.06	5032.49
2124.51	5025.65
2125.96	5045.95
2127.4	5041.82
2128.85	4993
2130.3	5035.61
2131.75	5011.1
2133.2	5014.93
2134.65	4994.93
2136.09	5017.94
2137.54	5010.45
2138.99	5009.02
2140.43	4994.46
2141.88	4977.26
2143.32	4977.38
2144.77	4978.12
2146.22	4986.36
2147.66	4995.73
2149.11	4979.84
2150.55	4976.67
2152	5004.11
2153.44	4960.46
2154.88	4967.31
2156.33	4970.97
2157.77	4958.28
2159.21	4931.11
2160.66	4962.84
2162.1	4966.6
2163.54	4955.3
2164.98	4970.48
2166.43	4963.29
2167.87	4931.89
2169.31	4944.32
2170.75	4938.23
2172.19	4939.29
2173.63	4930.08
2175.07	4919.08
2176.51	4906.28
2177.95	4904.55
2179.39	4902.89
2180.83	4893.79
2182.27	4895.35
2183.71	4871.46
2185.14	4882.11
2186.58	4893.02
2188.02	4896.23
2189.46	4864.77
2190.9	4863.12
2192.33	4853.52
2193.77	4857.29
2195.21	4835.02
2196.64	4819.54
2198.08	4854.01
2199.51	4820.18
2200.95	4829.34
2202.39	4819.69
2203.82	4823.63
2205.25	4811.04
2206.69	4815.62
2208.12	4806.27
2209.56	4801.46
2210.99	4778.33
2212.42	4784.53
2213.86	4779.73
2215.29	4746.36
2216.72	4746.07
2218.15	4754.68
2219.59	4725.6
2221.02	4720.72
2222.45	4716.68
2223.88	4719.12
2225.31	4698.83
2226.74	4733.98
2228.17	4685.89
2229.6	4688.27
2231.03	4676.59
2232.46	4672.96
2233.89	4693.68
2235.32	4663.82
2236.75	4677.23
2238.18	4646.83
2239.61	4634.75
2241.04	4670.2
2242.46	4630.62
2243.89	4629.07
2245.32	4634.25
2246.75	4611.36
2248.17	4613.95
2249.6	4596.58
2251.03	4603.24
2252.45	4597.24
2253.88	4587.39
2255.31	4591.96
2256.73	4561.67
2258.16	4567.28
2259.58	4550.1
2261	4554.14
2262.43	4545.82
2263.85	4512.58
2265.28	4501.81
2266.7	4521.39
2268.12	4481.04
2269.55	4500.09
2270.97	4475.86
2272.39	4468.06
2273.81	4474.76
2275.24	4485.95
2276.66	4481.22
2278.08	4452.01
2279.5	4475.9
2280.92	4454.04
2282.34	4438.2
2283.76	4413.15
2285.18	4423.31
2286.6	4399.64
2288.02	4403.15
2289.44	4398.3
2290.86	4395.53
2292.28	4398.87
2293.7	4382.15
2295.12	4370.78
2296.54	4394.34
2297.95	4369.63
2299.37	4369.83
2300.79	4370.09
2302.21	4367.5
2303.62	4360.92
2305.04	4358.98
2306.46	4347.84
2307.87	4340.72
2309.29	4320.31
2310.7	4341.98
2312.12	4326.87
2313.53	4290.48
2314.95	4310.24
2316.36	4281.81
2317.78	4318.65
2319.19	4294.31
2320.61	4271.96
2322.02	4275.33
2323.43	4292.36
2324.85	4295.99
2326.26	4338.66
2327.67	4389.54
2329.08	4471.67
2330.5	4465
2331.91	4404.15
2333.32	4251.8
2334.73	4200.94
2336.14	4189.82
2337.55	4199.18
2338.96	4217.4
2340.37	4174.5
2341.78	4160.38
2343.19	4162.6
2344.6	4176.05
2346.01	4159.68
2347.42	4144.28
2348.83	4125.86
2350.24	4147.02
2351.65	4113.7
2353.05	4115.46
2354.46	4111.85
2355.87	4124.45
2357.28	4087.87
2358.68	4093.07
2360.09	4097.23
2361.5	4088.47
2362.9	4075.32
2364.31	4063.7
2365.71	4059.4
2367.12	4050.07
2368.52	4045.34
2369.93	4030.06
2371.33	4054.19
2372.74	4033.74
2374.14	4029.87
2375.55	4025.26
2376.95	4030.9
2378.35	3999.35
2379.76	3996.31
2381.16	3986.31
2382.56	3996.79
2383.96	3976.53
2385.37	3997.72
2386.77	3993.27
2388.17	3991.49
2389.57	3970
2390.97	3962.57
2392.37	3972.64
2393.77	3947.39
2395.17	3940.94
2396.57	3944.12
2397.97	3953.44
2399.37	3936.39
2400.77	3940.45
2402.17	3938.59
2403.57	3926.54
2404.97	3924.09
2406.37	3907.3
2407.77	3880.06
2409.16	3898.73
2410.56	3891.06
2411.96	3885.19
2413.36	3893.2
2414.75	3887.54
2416.15	3884.91
2417.55	3885.48
2418.94	3859.84
2420.34	3874.09
2421.73	3863.98
2423.13	3849.95
2424.52	3835.49
2425.92	3848.91
2427.31	3860.04
2428.71	3841.22
2430.1	3823.9
2431.5	3819.24
2432.89	3805.79
2434.28	3829.71
2435.68	3804.3
2437.07	3812.93
2438.46	3783.46
2439.85	3809.81
2441.25	3790.12
2442.64	3794.81
2444.03	3800.13
2445.42	3773.64
2446.81	3756.12
2448.2	3775.86
2449.59	3784.45
2450.98	3758.18
2452.37	3766.6
2453.76	3755.84
2455.15	3730.9
2456.54	3767.05
2457.93	3739.96
2459.32	3755.65
2460.71	3731.45
2462.1	3734.53
2463.49	3729.66
2464.87	3729.34
2466.26	3707.26
2467.65	3708.52
2469.04	3707.39
2470.42	3671.83
2471.81	3662.65
2473.2	3678.79
2474.58	3675.84
2475.97	3659.87
2477.35	3653.67
2478.74	3649.82
2480.12	3678.43
2481.51	3645.65
2482.89	3658.73
2484.28	3645.84
2485.66	3657.82
2487.05	3648.42
2488.43	3634.48
2489.81	3636.87
2491.2	3633.48
2492.58	3622.18
2493.96	3607.5
2495.34	3615.36
2496.73	3617.13
2498.11	3615.2
2499.49	3592.24
2500.87	3609.85
2502.25	3585.61
2503.63	3589.86
2505.01	3599.69
2506.39	3573.61
2507.77	3554.48
2509.15	3564.22
2510.53	3563.17
2511.91	3573.51
2513.29	3549.34
2514.67	3546.67
2516.05	3544.58
2517.43	3541.8
2518.81	3532.48
2520.19	3532.51
2521.56	3544.71
2522.94	3527.46
2524.32	3522.52
2525.7	3550.62
2527.07	3520.84
2528.45	3551.71
2529.82	3515.56
2531.2	3529.47
2532.58	3486.44
2533.95	3512.64
2535.33	3503.42
2536.7	3506.59
2538.08	3490.39
2539.45	3495.67
2540.82	3478.26
2542.2	3473.61
2543.57	3468.93
2544.95	3439.93
2546.32	3446.42
2547.69	3461.69
2549.07	3458.48
2550.44	3431.13
2551.81	3432.6
2553.18	3426.07
2554.55	3413.67
2555.93	3412.23
2557.3	3433.65
2558.67	3423.34
2560.04	3433.75
2561.41	3409.46
2562.78	3398.7
2564.15	3407.26
2565.52	3405.99
2566.89	3387.06
2568.26	3378.17
2569.63	3387.01
2571	3387.03
2572.36	3400.81
2573.73	3394.13
2575.1	3402.38
2576.47	3377.44
2577.84	3372.26
2579.2	3375.89
2580.57	3373.57
2581.94	3360.83
2583.31	3389.56
2584.67	3383.54
2586.04	3364.45
2587.4	3370.41
2588.77	3374.02
2590.14	3376.56
2591.5	3380.95
2592.87	3350.15
2594.23	3385.23
2595.6	3381.54
2596.96	3361.35
2598.32	3375.13
2599.69	3390
2601.05	3345.4
2602.41	3362.48
2603.78	3343.73
2605.14	3361.06
2606.5	3341.58
2607.86	3340.59
2609.23	3333.33
2610.59	3332.11
2611.95	3319.43
2613.31	3341.8
2614.67	3329.17
2616.03	3326.82
2617.4	3334.31
2618.75	3334.07
2620.11	3318.36
2621.48	3322.02
2622.83	3314.33
2624.19	3293.98
2625.55	3330.1
2626.91	3295.97
2628.27	3299.47
2629.63	3301.17
2630.99	3298.17
2632.35	3312.27
2633.7	3290.68
2635.06	3300.58
2636.42	3298.23
2637.77	3287.41
2639.13	3288.92
2640.49	3274.08
2641.84	3287.68
2643.2	3294.18
2644.56	3285.47
2645.91	3317.17
2647.27	3274.61
2648.62	3280.96
2649.98	3290.67
2651.33	3290.3
2652.69	3287.86
2654.04	3282.91
2655.4	3283.94
2656.75	3292.83
2658.1	3296.34
2659.45	3293.34
2660.81	3297.71
2662.16	3290.61
2663.51	3306.92
2664.86	3321.18
2666.22	3308.59
2667.57	3297.02
2668.92	3301.33
2670.27	3316.48
2671.62	3322.29
2672.97	3300.39
2674.32	3276.34
2675.67	3299.42
2677.02	3296.02
2678.37	3288.71
2679.72	3293.45
2681.07	3284.82
2682.42	3307.68
2683.77	3267.21
2685.12	3273.57
2686.47	3268.28
2687.81	3258.43
2689.16	3270.93
2690.51	3268.06
2691.86	3268.88
2693.21	3290.84
2694.55	3260.19
2695.9	3266.39
2697.25	3242.84
2698.59	3258.94
2699.94	3281.84
2701.28	3295.62
2702.63	3279.12
2703.97	3292.06
2705.32	3301.41
2706.66	3310.56
2708.01	3310.7
2709.35	3326.28
2710.7	3350.66
2712.04	3360.97
2713.39	3374.09
2714.73	3354.99
2716.07	3390.86
2717.41	3390.55
2718.76	3390.92
2720.1	3402.74
2721.44	3398.29
2722.78	3419.9
2724.12	3410.24
2725.47	3433.61
2726.81	3422.02
2728.15	3411.68
2729.49	3427.09
2730.83	3410.73
2732.17	3399.74
2733.51	3392.63
2734.85	3351.24
2736.19	3313.74
2737.53	3278.6
2738.87	3252.06
2740.21	3237.04
2741.55	3176.56
2742.88	3190.89
2744.22	3166.37
2745.56	3131.01
2746.9	3114.91
2748.24	3100.03
2749.57	3084.49
2750.91	3060.42
2752.25	3030.56
2753.58	3055.51
2754.92	3013.56
2756.25	3024.07
2757.59	3006.62
2758.93	3010.11
2760.26	2989.64
2761.6	2977.23
2762.93	2967.7
2764.27	2980.93
2765.6	2961.36
2766.93	2974.74
2768.27	2974.47
2769.6	2958.42
2770.94	2950.76
2772.27	2959.54
2773.6	2950.35
2774.93	2949.23
2776.27	2932.28
2777.6	2927.33
2778.93	2923.51
2780.26	2909.32
2781.59	2924.36
2782.93	2929.25
2784.26	2921.81
2785.59	2903.1
2786.92	2903.62
2788.25	2905.45
2789.58	2896.9
2790.91	2912.01
2792.24	2907.92
2793.57	2915.74
2794.9	2927.58
2796.23	2945.8
2797.56	2922.63
2798.88	2933.03
2800.21	2942.56
2801.54	2931.7
2802.87	2954.1
2804.2	2937.79
2805.52	2926.26
2806.85	2946.69
2808.18	2960.46
2809.5	2947.54
2810.83	2954.78
2812.16	2984.53
2813.48	2999.95
2814.81	3030.15
2816.13	3006.69
2817.46	3026.63
2818.78	3078.38
2820.11	3101.32
2821.43	3115.89
2822.76	3151.27
2824.08	3179.06
2825.4	3182.1
2826.73	3248.63
2828.05	3293
2829.37	3362.02
2830.7	3438.98
2832.02	3523.99
2833.34	3634.18
2834.66	3731.85
2835.99	3907.36
2837.31	4071.63
2838.63	4298.9
2839.95	4596.48
2841.27	4961.49
2842.59	5453.34
2843.91	6057.21
2845.23	6794.35
2846.55	7586.8
2847.87	8385.8
2849.19	9024.07
2850.51	9508.63
2851.83	9719.86
2853.15	9717.28
2854.47	9572.62
2855.79	9354.83
2857.11	9094.81
2858.43	8861.31
2859.74	8639.83
2861.06	8426.19
2862.38	8261.13
2863.69	8113.86
2865.01	7935.7
2866.33	7840.62
2867.65	7831.17
2868.96	7855.06
2870.28	7920.47
2871.59	8022.71
2872.91	8137.44
2874.22	8292.15
2875.54	8298.16
2876.85	8303.71
2878.17	8350.11
2879.48	8364.51
2880.8	8428.87
2882.11	8531.56
2883.42	8612.08
2884.74	8748.58
2886.05	8812.07
2887.36	8932.64
2888.68	8995.85
2889.99	9070.18
2891.3	9103.26
2892.61	9108.45
2893.93	9131.44
2895.24	9059.57
2896.55	9088.58
2897.86	9079.97
2899.17	9103.19
2900.48	9082.11
2901.79	9044.99
2903.1	9039.45
2904.41	8994.66
2905.72	8948.23
2907.03	8956.21
2908.34	8882.61
2909.65	8883.21
2910.96	8813.55
2912.27	8815.46
2913.57	8755.97
2914.88	8738.05
2916.19	8713.12
2917.5	8684.91
2918.81	8657.84
2920.11	8645.79
2921.42	8635.42
2922.73	8620.12
2924.03	8657.2
2925.34	8628.1
2926.64	8677.18
2927.95	8672.94
2929.26	8662.88
2930.56	8651.67
2931.87	8605.67
2933.17	8594.88
2934.48	8497.64
2935.78	8455.04
2937.09	8327.17
2938.39	8184.53
2939.69	7995.73
2941	7750.09
2942.3	7448.15
2943.6	7105.71
2944.91	6793.77
2946.21	6501.65
2947.51	6253.16
2948.81	6019.88
2950.12	5829.65
2951.42	5701.11
2952.72	5592.7
2954.02	5495.29
2955.32	5441.15
2956.62	5404.52
2957.92	5357.64
2959.22	5308.21
2960.52	5227.79
2961.82	5175.49
2963.12	5095.78
2964.42	4985.56
2965.72	4881.47
2967.02	4779.66
2968.32	4670.34
2969.62	4537.38
2970.92	4434.46
2972.21	4319.43
2973.51	4200.87
2974.81	4117.59
2976.11	4024.7
2977.4	3941.14
2978.7	3848
2980	3788.97
2981.29	3713.54
2982.59	3634.7
2983.89	3596.04
2985.18	3533.86
2986.48	3468.45
2987.77	3406.3
2989.07	3407.52
2990.36	3383.33
2991.66	3341.13
2992.95	3324.82
2994.25	3286.2
2995.54	3295.58
2996.84	3289.14
2998.13	3282.86
2999.42	3261.87
3000.72	3288.39
3002.01	3279.42
3003.3	3254.13
3004.59	3289.77
3005.89	3292.82
3007.18	3255.26
3008.47	3264.46
3009.76	3212.25
3011.05	3182.22
3012.34	3153.07
3013.63	3087.09
3014.93	3045.71
3016.22	3014.27
3017.5	2982.25
3018.8	2937.26
3020.09	2919.07
3021.38	2891.23
3022.67	2854.1
3023.95	2820.52
3025.24	2800.57
3026.53	2776.41
3027.82	2722.76
3029.11	2723.63
3030.4	2704.65
3031.68	2698.18
3032.97	2689.5
3034.26	2669.18
3035.54	2655.1
3036.83	2663.08
3038.12	2673.05
3039.4	2653.04
3040.69	2660.19
3041.98	2650.23
3043.26	2639.99
3044.55	2641.67
3045.83	2632.72
3047.12	2656.17
3048.4	2642.44
3049.69	2620.23
3050.97	2646.8
3052.26	2644.59
3053.54	2652.51
3054.82	2662.56
3056.11	2651.78
3057.39	2662
3058.67	2655.73
3059.96	2674.21
3061.24	2675.39
3062.52	2657.4
3063.8	2666.07
3065.09	2677.93
3066.37	2685.7
3067.65	2674.01
3068.93	2678.12
3070.21	2677.65
3071.49	2659.06
3072.77	2666.34
3074.05	2687.22
3075.33	2659.64
3076.61	2666.95
3077.89	2659.54
3079.17	2677.91
3080.45	2652.43
3081.73	2670.02
3083.01	2649.58
3084.29	2646.43
3085.57	2672.07
3086.84	2649.18
3088.12	2677.14
3089.4	2683.15
3090.68	2685.07
3091.95	2685.02
3093.23	2689.65
3094.51	2692.38
3095.79	2691.78
3097.06	2698.03
3098.34	2707.87
3099.61	2714.66
3100.89	2708.54
3102.17	2708.96
3103.44	2720.36
3104.72	2743.6
3105.99	2742.43
3107.27	2775.49
3108.54	2758.23
3109.81	2761.89
3111.09	2786.81
3112.36	2794.19
3113.63	2796.37
3114.91	2795.28
3116.18	2797.33
3117.46	2817.34
3118.73	2814.5
3120	2827.14
3121.27	2868.03
3122.54	2849.74
3123.82	2851.49
3125.09	2863.76
3126.36	2876.78
3127.63	2891.26
3128.9	2874.95
3130.17	2917.1
3131.44	2913.3
3132.71	2935.76
3133.98	2945.33
3135.25	2935.92
3136.52	2960.55
3137.79	2955.75
3139.06	2971.73
3140.33	2976.91
3141.6	3010.41
3142.86	3005.37
3144.13	3010.74
3145.4	3032
3146.67	3021.97
3147.94	3040.1
3149.2	3075.79
3150.47	3077.41
3151.74	3081.63
3153	3117.15
3154.27	3100.69
3155.54	3112.64
3156.8	3107.15
3158.07	3120.75
3159.34	3142.85
3160.6	3144.15
3161.86	3162.6
3163.13	3174.19
3164.4	3192.08
3165.66	3172.62
3166.92	3199.32
3168.19	3209.13
3169.45	3237.57
3170.72	3218.8
3171.98	3215.5
3173.24	3215.84
3174.5	3228.42
3175.77	3222.55
3177.03	3232.21
3178.29	3231.21
3179.56	3221.48
3180.82	3246.44
3182.08	3222.96
3183.34	3237.14
3184.6	3255.92
3185.86	3255.31
3187.12	3232.59
3188.38	3245.41
3189.64	3257.14
3190.9	3246.13
3192.16	3259.58
3193.42	3249.1
3194.68	3243.35
3195.94	3257.9
3197.2	3250.83
3198.46	3233.49
3199.72	3240.06
3200.98	3256.38
3202.24	3249.29
3203.49	3250.37
3204.75	3262.88
3206.01	3256.14
3207.27	3244.61
3208.52	3241.87
3209.78	3242.36
3211.04	3229.18
3212.29	3234.84
3213.55	3226.95
3214.81	3235.07
3216.06	3222.12
3217.32	3207.36
3218.57	3225.53
3219.83	3218.99
3221.08	3213.97
3222.34	3220.17
3223.59	3218.43
3224.85	3209.09
3226.1	3202.17
3227.35	3203.97
3228.61	3188.97
3229.86	3187.89
3231.11	3190.18
3232.37	3188.79
3233.62	3179.61
3234.87	3179.61
3236.12	3171.8
3237.38	3171.86
3238.63	3162.58
3239.88	3143.79
3241.13	3146.39
3242.38	3145.19
3243.63	3134.52
3244.89	3142.85
3246.14	3131.1
3247.39	3123.13
3248.64	3122.64
3249.89	3127.16
3251.14	3116.02
3252.39	3108.15
3253.64	3096.72
3254.88	3103.81
3256.13	3078.89
3257.38	3079.83
3258.63	3070.91
3259.88	3071.22
3261.13	3063.31
3262.37	3061.58
3263.62	3047.9
3264.87	3042.16
3266.12	3035.94
3267.36	3036.9
3268.61	3034.25
3269.86	3033.75
3271.1	3031.56
3272.35	3021.12
3273.6	3016.54
3274.84	3016.52
3276.09	3003.4
3277.33	2996.29
3278.58	2986.21
3279.82	2972.6
3281.07	2967.92
3282.31	2965.81
3283.56	2968.04
3284.8	2963.63
3286.04	2954.81
3287.29	2953.74
3288.53	2959.1
3289.77	2953.11
3291.02	2934.98
3292.26	2923.93
3292.9	2922.49
3294.15	2933.66
3295.39	2931.83
3296.64	2925.27
3297.89	2908.88
3299.14	2917.56
3300.38	2905.98
3301.63	2906.02
3302.88	2912.57
3304.12	2913.93
3305.37	2897.71
3306.62	2892.85
3307.86	2884.99
3309.11	2874.79
3310.35	2879.72
3311.6	2881.54
3312.84	2889.66
3314.09	2885.72
3315.34	2857.95
3316.58	2880.36
3317.82	2867.2
3319.07	2863.21
3320.31	2868.25
3321.56	2856.44
3322.8	2864.22
3324.04	2862.05
3325.29	2851.93
3326.53	2833.67
3327.77	2836.82
3329.01	2848.56
3330.25	2850.45
3331.5	2820.16
3332.74	2800.14
3333.98	2819.25
3335.22	2827.37
3336.46	2814.8
3337.7	2827.21
3338.94	2826.74
3340.19	2825.95
3341.42	2821.59
3342.67	2808.3
3343.9	2804.18
3345.15	2798.3
3346.38	2803.63
3347.62	2794.88
3348.86	2792.88
3350.1	2773.13
3351.34	2800.81
3352.58	2799.91
3353.82	2778.35
3355.06	2790.38
3356.29	2766.27
3357.53	2761.94
3358.77	2763.88
3360	2786.05
3361.24	2769.39
3362.48	2769.69
3363.71	2777.9
3364.95	2744.07
3366.19	2746.72
3367.42	2761.63
3368.66	2750.73
3369.89	2745.59
3371.13	2739.75
3372.36	2752.45
3373.6	2753.12
3374.83	2735.9
3376.07	2751.69
3377.3	2735.67
3378.54	2742.44
3379.77	2728.47
3381	2728.21
3382.24	2736.7
3383.47	2731.2
3384.7	2717.92
3385.94	2710.86
3387.17	2702.01
3388.4	2721.42
3389.63	2709.31
3390.87	2696.38
3392.1	2704.39
3393.33	2687.75
3394.56	2712.72
3395.79	2687.74
3397.02	2704.18
3398.25	2695.62
3399.48	2682.76
3400.71	2677.28
3401.94	2684.74
3403.17	2686.59
3404.4	2686.12
3405.63	2666.39
3406.86	2670.23
3408.09	2662.62
3409.32	2659.91
3410.55	2650.7
3411.78	2661.67
3413	2633.91
3414.23	2649.45
3415.46	2632.13
3416.69	2616.54
3417.92	2636.91
3419.14	2621.7
3420.37	2620.33
3421.6	2607.05
3422.82	2602.06
3424.05	2612.12
3425.27	2612.18
3426.5	2584.4
3427.73	2585.67
3428.95	2578.02
3430.18	2584.93
3431.4	2564.64
3432.63	2557.39
3433.85	2554.68
3435.08	2558.16
3436.3	2547.29
3437.53	2553.34
3438.75	2537.21
3439.97	2530.25
3441.2	2535.45
3442.42	2507.63
3443.64	2500.53
3444.86	2489.44
3446.09	2479.81
3447.31	2496.9
3448.53	2479.61
3449.75	2471.4
3450.98	2462.88
3452.2	2457.65
3453.42	2449.04
3454.64	2416.9
3455.86	2443.03
3457.08	2439.72
3458.3	2443.44
3459.52	2426.32
3460.74	2420.16
3461.96	2397.87
3463.18	2402.61
3464.4	2387.23
3465.62	2372.15
3466.84	2373.89
3468.06	2371.65
3469.28	2350.48
3470.5	2356.49
3471.72	2325.83
3472.93	2325.22
3474.15	2309
3475.37	2306.91
3476.59	2302.79
3477.8	2303.52
3479.02	2268.77
3480.24	2255.35
3481.45	2263.75
3482.67	2262.76
3483.89	2263.93
3485.1	2237.07
3486.32	2213.83
3487.53	2214.3
3488.75	2192.03
3489.96	2194.16
3491.18	2179.29
3492.39	2175.59
3493.61	2160.47
3494.82	2155.14
3496.04	2151.8
3497.25	2137.81
3498.47	2113.76
3499.68	2110.58
