#Acq. time (s)=	7
#Accumulations=	20
#Range (cm-¹)=	400...3500
#Windows=	3
#Auto scanning=	Off
#Autofocus=	Off
#AutoExposure=	Off
#Spike filter=	Multiple accum.
#Delay time (s)=	0
#Binning=	1
#Readout mode=	Signal
#DeNoise=	Off
#ICS correction=	On
#Dark correction=	Off
#Inst. Process=	Off
#Detector Gain=	Best Dynamic Range
#Detector ADC=	45 kHz       
#Detector temperature (°C)=	-60.1
#Instrument=	LabRAM HR Evol
#Detector=	Syncerity OE
#Objective=	x50_VIS_LWD
#Grating=	600 (500nm)
#ND Filter=	50%
#Laser=	532nm_Edge
#Hole=	199.981
#Range=	Visible
#E-Cal_Neon=	0
#StageXY=	75x50mm Scan+
#StageZ=	Z motor
#X (µm)=	0
#Y (µm)=	0
#Z (µm)=	332.8
#Spectral res.(cm-¹)=	12.8
#Full time(mm:ss)=	7:25
#AC=	Calibrated 2025-07-01 10:31
#Project=	
#Sample=	
#Site=	
#Title=	D_1
#Remark=	
#Date=	01.07.2025 12:21 (India Standard Time)
#Acquired=	01.07.2025 12:21:42 (India Standard Time)
#AxisType[0]=Intens
#AxisUnit[0]=Cnt
#AxisType[1]=Spectr
#AxisUnit[1]=1/cm
400.083	31576.6
401.858	31454
403.63	31391.4
405.405	31504.2
407.176	31553.8
408.949	31558.3
410.72	31587
412.493	31560.7
414.263	31568.7
416.033	31686.6
417.805	31724.6
419.574	31732.7
421.345	31767.2
423.114	31753.1
424.884	31739.9
426.652	31803.9
428.421	31805.8
430.188	31842.5
431.955	31912.4
433.724	31899.1
435.49	31849.4
437.258	31897.1
439.023	31891.5
440.788	31895.7
442.555	31949.3
444.32	31917.4
446.084	31917.9
447.85	31995.1
449.613	31930.8
451.376	31959.6
453.141	32004.9
454.904	31997.9
456.666	32013.6
458.429	31979.9
460.191	31928.4
461.952	31927.2
463.715	31983.2
465.475	32061.8
467.235	32053.9
468.995	32071.2
470.756	32059.7
472.515	32087.1
474.274	32081.5
476.032	32235
477.793	32220.7
479.55	32172.4
481.308	32169.6
483.065	32165.8
484.823	32225.5
486.58	32252.5
488.336	32250.6
490.091	32280
491.847	32216
493.604	32311.5
495.358	32255.5
497.113	32434.5
498.867	32416.8
500.62	32480.8
502.374	32535.5
504.127	32590.2
505.881	32607.9
507.634	32661.4
509.386	32653.8
511.137	32671.9
512.888	32663.4
514.639	32750.5
516.39	32715.2
518.14	32734.1
519.89	32736.9
521.642	32754.7
523.391	32702.1
525.14	32679.5
526.889	32745.2
528.637	32739.4
530.385	32724
532.133	32741.4
533.88	32709
535.627	32742.1
537.373	32735.4
539.12	32785.2
540.866	32712.8
542.611	32686.4
544.357	32733.8
546.101	32717.6
547.846	32745.3
549.59	32724.2
551.334	32813
553.078	32775.9
554.821	32843.3
556.564	32845.6
558.307	32872.5
560.049	32905.3
561.789	32886.3
563.53	32962.2
565.272	32945.4
567.013	32933.7
568.753	33047.5
570.494	33032.3
572.233	33078.2
573.973	33073.3
575.712	33139.8
577.449	33075.5
579.188	33118
580.926	33135.5
582.664	33146.4
584.402	33225
586.139	33205.4
587.876	33287.5
589.611	33366.8
591.347	33220.5
593.083	33329.8
594.818	33373.6
596.554	33339.7
598.287	33369.9
600.021	33388.9
601.756	33412
603.49	33445.2
605.221	33446.7
606.955	33509.3
608.688	33426.4
610.42	33532.2
612.15	33477.6
613.882	33402.3
615.614	33347.7
617.345	33455.8
619.074	33445.7
620.805	33396.2
622.535	33369
624.263	33338.7
625.993	33303.3
627.722	33291.2
629.45	33273.2
631.178	33209.2
632.907	33220.4
634.633	33297
636.36	33344.8
638.088	33354
639.813	33390.8
641.539	33484.3
643.264	33329.9
644.99	33360.9
646.716	33260.6
648.439	33311.2
650.164	33320.6
651.887	33362.2
653.611	33428.2
655.335	33322.6
657.057	33379.2
658.781	33422.9
660.502	33414.7
662.225	33426.9
663.945	33395.7
665.667	33463.9
667.387	33516
669.108	33509.8
670.828	33515
672.548	33524.7
674.267	33554.7
675.987	33554.8
677.705	33549.7
679.424	33535.3
681.142	33647.1
682.86	33665.3
684.577	33638.8
686.293	33693.1
688.011	33716.7
689.727	33708.4
691.444	33783.7
693.159	33753.6
694.875	33784
696.59	33802.5
698.304	33858
700.019	33840.3
701.733	33830.3
703.448	33861.9
705.16	33837.9
706.872	33804.5
708.586	33732.8
710.298	33785.5
712.01	33787.1
713.723	33812.8
715.433	33808.1
717.144	33819.6
718.856	33862.4
720.565	33964.8
722.275	33900.2
723.984	33862.6
725.695	33934.2
727.403	33901.4
729.111	33947.4
730.821	33874.5
732.528	33936.9
734.235	33856.9
735.942	33930.5
737.651	33929
739.357	33938.3
741.063	33875
742.768	33932.2
744.474	33836.6
746.18	33920.5
747.885	33918.6
749.589	33993.8
751.293	34091.6
752.997	34068.8
754.702	34069.4
756.405	34161.6
758.108	34145.3
759.81	34248.8
761.512	34204
763.214	34166.7
764.915	34265.7
766.618	34262.8
768.319	34336.7
770.019	34307.2
771.719	34318.6
773.419	34385.1
775.118	34416.4
776.817	34500.7
778.516	34351.5
780.214	34422.8
781.913	34451.9
783.61	34476.8
785.308	34491.2
787.005	34482.8
788.702	34473.8
790.398	34420.8
792.095	34457.3
793.791	34424.3
795.486	34419.9
797.181	34496.9
798.876	34523.9
800.571	34541.6
802.265	34585.1
803.959	34617.4
805.653	34564.6
807.346	34584.4
809.039	34495.3
810.732	34458
812.424	34476.5
814.116	34494.2
815.808	34500.8
817.5	34554.3
819.191	34597.3
820.881	34617.4
822.572	34691.4
824.26	34814.8
825.95	34769.8
827.639	34854.3
829.329	34770.1
831.018	34806.4
832.706	34865.7
834.394	34822.4
836.08	34818.5
837.768	34842.6
839.455	34834.9
841.142	34966.5
842.829	35035.9
844.513	35033.9
846.199	35028.9
847.885	34995.1
849.57	35119
851.255	35071.6
852.938	35107.3
854.623	35128.6
856.307	35094.4
857.991	35178.3
859.672	35322.8
861.355	35209.7
863.038	35196.5
864.719	35215.3
866.401	35185
868.083	35261.4
869.765	35155.8
871.444	35255.1
873.125	35283.7
874.806	35304
876.484	35424
878.164	35280.5
879.844	35229.2
881.521	35215.7
883.2	35195.1
884.877	35267.5
886.555	35282.3
888.234	35286.6
889.909	35337.6
891.587	35200.5
893.262	35213.3
894.939	35142.5
896.616	35072.6
898.29	35105.3
899.966	35037.1
901.64	35001
903.315	34977.2
904.988	34943.2
906.663	34847.7
908.335	34960
910.009	34892
911.683	34888
913.354	34876.3
915.027	34859.8
916.698	34891
918.369	34892.5
920.041	34867.4
921.711	34730.5
923.383	34790.2
925.052	34768
926.723	34727.9
928.391	34674.1
930.062	34722.7
931.73	34592.5
933.399	34615.8
935.067	34661
936.734	34619
938.403	34654.5
940.069	34758.1
941.737	34750.7
943.403	34759.1
945.069	34688.1
946.736	34703
948.401	34642.5
950.065	34710.9
951.732	34747.3
953.396	34664.4
955.059	34696
956.725	34802.2
958.388	34775
960.051	34770.1
961.715	34799.1
963.377	34851.9
965.039	34867.6
966.7	34863
968.364	34837.9
970.025	34844.2
971.685	34783.1
973.345	34780.8
975.007	34874.1
976.667	34805.9
978.326	34734.6
979.985	34770.8
981.646	34819.7
983.304	34878.6
984.963	34880.7
986.62	34909.6
988.278	34889.8
989.935	34896.7
991.594	34949.8
993.25	35010.5
994.907	35077.8
996.563	35116.7
998.218	35272.5
999.874	35491.2
1001.53	35568.8
1003.19	35493.4
1004.84	35348.4
1006.49	35291
1008.15	35150.2
1009.8	35192.4
1011.45	35172.7
1013.11	35096.9
1014.76	35071.4
1016.41	35133.5
1018.06	35107.6
1019.72	35089.2
1021.37	35024.2
1023.02	34994
1024.67	34963.7
1026.32	34918.3
1027.97	34955.1
1029.62	34953.4
1031.27	34944.3
1032.92	34926.4
1034.57	34856.2
1036.22	34957.3
1037.86	34873.1
1039.51	34886.7
1041.16	34875.2
1042.81	34866.4
1044.45	34857.3
1046.1	34817.5
1047.75	34949.8
1049.39	34876.8
1051.04	34966
1052.68	34976.1
1054.33	35047.6
1055.97	35126.2
1057.62	35240.8
1059.26	35336.1
1060.91	35388.2
1062.55	35501.1
1064.19	35363.1
1065.83	35266.4
1067.48	35225.5
1069.12	35197
1070.76	35183.8
1072.4	35319.5
1074.04	35259.1
1075.68	35316
1077.32	35371.9
1078.97	35365.4
1080.61	35359.5
1082.24	35380.4
1083.88	35242.8
1085.52	35276.2
1087.16	35287.7
1088.8	35244.5
1090.44	35084.3
1092.08	35051
1093.71	35005.7
1095.35	34955.9
1096.99	34867.3
1098.62	34754
1100.26	34687.1
1101.9	34654.3
1103.53	34639
1105.17	34593.6
1106.8	34582.8
1108.44	34529.9
1110.07	34563.7
1111.7	34663.3
1113.34	34696.3
1114.97	34776.4
1116.6	34786.8
1118.23	34871.5
1119.87	34927.2
1121.5	34937.3
1123.13	34926.8
1124.76	34889
1126.39	34818.7
1128.03	34815.6
1129.65	34646.7
1131.29	34533.7
1132.91	34403.1
1134.54	34379.2
1136.17	34261.7
1137.8	34240.8
1139.43	34287.5
1141.06	34205.9
1142.69	34250
1144.31	34388.7
1145.94	34414.3
1147.57	34541.7
1149.19	34628.4
1150.82	34836.5
1152.45	35009.9
1154.07	35137.3
1155.7	35175.8
1157.32	35076.5
1158.95	34837.9
1160.57	34648.7
1162.2	34421.2
1163.82	34282.9
1165.44	34113.4
1167.07	34066.8
1168.69	34112.7
1170.31	34035.1
1171.94	34008.9
1173.56	33955.7
1175.18	33925.2
1176.8	33970
1178.42	33871
1180.04	33866.6
1181.66	33878.6
1183.28	33804.1
1184.9	33880.3
1186.52	33861.8
1188.14	33881.6
1189.76	33835.5
1191.38	33943.9
1192.99	33823.8
1194.61	33831.2
1196.23	33790.8
1197.85	33822
1199.46	33711
1201.08	33732.1
1202.7	33711.2
1204.31	33640.1
1205.93	33801.7
1207.54	33718.7
1209.16	33758
1210.78	33754.4
1212.39	33734.5
1214	33694.3
1215.62	33637.9
1217.23	33652.8
1218.84	33573.3
1220.46	33629.8
1222.07	33671.7
1223.68	33662.4
1225.29	33637.4
1226.91	33632.7
1228.52	33756.9
1230.13	33679.2
1231.74	33738.2
1233.35	33667.3
1234.96	33715.1
1236.57	33667.6
1238.18	33798
1239.79	33777.6
1241.4	33876.2
1243	33841.1
1244.61	33937
1246.22	33993.9
1247.83	34011.1
1249.43	33966.5
1251.04	33964.4
1252.65	33828.5
1254.25	34046.8
1255.86	33976.9
1257.47	34029.8
1259.07	34024.5
1260.68	34031.3
1262.28	34025.9
1263.89	34090.1
1265.49	34024.5
1267.09	33993.6
1268.7	33874.4
1270.3	33913.8
1271.9	33965.5
1273.51	33825
1275.11	33797.9
1276.71	33804.2
1278.31	33768.3
1279.91	33723.8
1281.52	33802.1
1283.12	33759.5
1284.72	33745.3
1286.32	33745.3
1287.92	33870.8
1289.52	33997.4
1291.12	34116.5
1292.72	34289.8
1294.31	34449
1295.91	34667.4
1297.51	34677.1
1299.11	34698.1
1300.71	34708.2
1302.3	34661.3
1303.9	34578.7
1305.5	34519.9
1307.09	34337
1308.69	34222.2
1310.28	34175.1
1311.88	33991.1
1313.47	33867.9
1315.07	33698.8
1316.66	33566.9
1318.26	33451.8
1319.85	33484.3
1321.44	33386.5
1323.04	33352.3
1324.63	33287.3
1326.22	33280.8
1327.82	33227.3
1329.41	33207.1
1331	33164.4
1332.59	33199.1
1334.18	33140.7
1335.77	33229.3
1337.36	33138.1
1338.95	33130.8
1340.54	33065.5
1342.13	33096
1343.72	33013.6
1345.31	32975.7
1346.9	32933.8
1348.49	32970.6
1350.07	32925.8
1351.66	32916.2
1353.25	32941.3
1354.84	32836.9
1356.42	32746
1358.01	32731.4
1359.6	32633.1
1361.18	32638.4
1362.77	32639.8
1364.35	32710.6
1365.94	32670
1367.52	32617.6
1369.11	32594.8
1370.69	32496.8
1372.28	32419.1
1373.86	32478.4
1375.44	32257.6
1377.02	32236.9
1378.61	32183.9
1380.19	32141.6
1381.77	32128.4
1383.35	32064.3
1384.93	31974.6
1386.52	32067.7
1388.1	32111.5
1389.68	32141.1
1391.26	32102.8
1392.84	32086.2
1394.41	32055.3
1396	31979
1397.57	32011.9
1399.15	32003.9
1400.73	31977.1
1402.31	32051.2
1403.89	31991.8
1405.46	32020.5
1407.04	31969.6
1408.62	32022.4
1410.19	32103.6
1411.77	32141.7
1413.35	32171.6
1414.92	32235.6
1416.5	32324.5
1418.07	32373
1419.65	32439
1421.22	32361.7
1422.8	32380.1
1424.37	32561
1425.94	32584.8
1427.52	32854.9
1429.09	33189
1430.66	33534.7
1432.23	33868.4
1433.8	34285.7
1435.38	34564.6
1436.95	34681.2
1438.52	34794.6
1440.09	34739.3
1441.66	34628.3
1443.23	34510.3
1444.8	34413.3
1446.37	34314.2
1447.94	34205.5
1449.51	34129.9
1451.08	34021.7
1452.65	33860.3
1454.22	33782.5
1455.78	33750
1457.35	33640.9
1458.92	33473.9
1460.48	33354
1462.05	33167.8
1463.62	33079.1
1465.18	32855.8
1466.75	32602.9
1468.31	32419.1
1469.88	32267.4
1471.44	32098.3
1473.01	31933.1
1474.57	31659.4
1476.14	31540.4
1477.7	31498.6
1479.26	31366
1480.83	31335.1
1482.39	31150.3
1483.95	31138.6
1485.51	31167.7
1487.08	31106.8
1488.64	31124.5
1490.2	30971.5
1491.76	31056.2
1493.32	31057.4
1494.88	31121.4
1496.44	31072.4
1498	31027.7
1499.56	31051.1
1501.12	31037.2
1502.68	31050.6
1504.24	31082.1
1505.8	31088.2
1507.35	31136.6
1508.91	31249.6
1510.47	31264.7
1512.03	31356.9
1513.58	31379.5
1515.14	31489.6
1516.69	31612.9
1518.25	31628.2
1519.81	31632.5
1521.36	31639.5
1522.92	31619.8
1524.47	31517.9
1526.03	31426.8
1527.58	31218.8
1529.13	31090.9
1530.69	30963.3
1532.24	30718.2
1533.79	30641.4
1535.35	30598
1536.9	30516.9
1538.45	30520.4
1540	30444
1541.55	30478.5
1543.11	30443.3
1544.66	30332.3
1546.21	30365.4
1547.76	30231.7
1549.31	30244
1550.86	30155.8
1552.41	30267.4
1553.96	30141.1
1555.5	30245.3
1557.05	30095.4
1558.6	30153.9
1560.15	30133.8
1561.7	30178.2
1563.24	30136.5
1564.79	30195
1566.34	30208.3
1567.88	30191.8
1569.43	30138.6
1570.98	30159.5
1572.52	30145.2
1574.07	30160.3
1575.61	29999.5
1577.16	30103.3
1578.7	30030.1
1580.25	30073.5
1581.79	30102.1
1583.34	30054.7
1584.88	29986.4
1586.42	30005
1587.96	30003
1589.51	29969.2
1591.05	29977
1592.59	29965.9
1594.13	29941.3
1595.67	29884.8
1597.21	29960.1
1598.76	29907.5
1600.3	30013.3
1601.83	29962.6
1603.37	29960.3
1604.92	29885.5
1606.45	29871.2
1607.99	29863.4
1609.53	29851
1611.07	29794.2
1612.61	29738.1
1614.15	29695.2
1615.68	29690.6
1617.22	29646.9
1618.76	29661.3
1620.29	29695.2
1621.83	29635.9
1623.37	29590.3
1624.9	29563.1
1626.44	29567.4
1627.97	29593.5
1629.51	29670.3
1631.04	29657.7
1632.58	29657.8
1634.11	29655.2
1635.64	29678.9
1637.18	29683.8
1638.71	29688.3
1640.24	29784
1641.78	29758.3
1643.31	29787.3
1644.84	29923.7
1646.37	30111
1647.9	30181.9
1649.44	30454.1
1650.97	30546.2
1652.5	30629.4
1654.03	30648.6
1655.56	30504.5
1657.09	30277.6
1658.62	30103.5
1660.14	29980.2
1661.67	29830.9
1663.2	29721.3
1664.73	29619.6
1666.26	29530
1667.79	29534
1669.31	29520.6
1670.84	29433.9
1672.37	29353.4
1673.89	29293
1675.42	29232.4
1676.95	29107.1
1678.47	28982.1
1680	28898.2
1681.52	28921.5
1683.05	28858.3
1684.57	28765.6
1686.1	28748.6
1687.62	28661.8
1689.14	28703.6
1690.67	28618.4
1692.19	28595.7
1693.71	28593
1695.23	28464.6
1696.76	28489.3
1698.28	28403.1
1699.8	28318.9
1701.32	28212.2
1702.84	28259.7
1704.36	28207.4
1705.88	28201
1707.4	28140.4
1708.92	28133.7
1710.44	28119
1711.96	28095.5
1713.48	28037.1
1715	28122.3
1716.52	27997.5
1718.04	27996.5
1719.56	27942.8
1721.07	28018
1722.59	27969.9
1724.11	28067.1
1725.63	28048.8
1727.14	27953.8
1728.66	28009.5
1730.17	27984.1
1731.69	28021.2
1733.2	28114.2
1734.72	28122.1
1736.23	28178.3
1737.75	28180.6
1739.26	28221.5
1740.78	28228.8
1742.29	28310.7
1743.8	28233.8
1745.32	28174.7
1746.83	28149.6
1748.34	28131.1
1749.86	28141.9
1751.37	28020
1752.88	27910.4
1754.39	27789.4
1755.9	27666.3
1757.41	27657.6
1758.92	27606
1760.43	27490.5
1761.94	27465
1763.45	27426.5
1764.96	27369.9
1766.47	27376.3
1767.98	27351.9
1769.49	27302.9
1771	27319.3
1772.5	27295.2
1774.01	27328.4
1775.52	27284.6
1777.03	27301
1778.53	27249.5
1780.04	27222.7
1781.55	27271.2
1783.05	27164.6
1784.56	27167.7
1786.06	27225.7
1787.57	27200.8
1789.07	27193.8
1790.58	27167.2
1792.08	27107.7
1793.59	27112
1795.09	27116.3
1796.59	27106.2
1798.1	27067.4
1799.6	26978.2
1801.1	26944.5
1802.61	26889.8
1804.11	26972.7
1805.61	26941
1807.11	26852
1808.61	26882.7
1810.11	26919.9
1811.61	26866.4
1813.11	26847.2
1814.61	26835.2
1816.11	26762.3
1817.61	26783.7
1819.11	26779.2
1820.61	26686.7
1822.11	26744.7
1823.61	26697.3
1825.11	26710.8
1826.6	26682.1
1828.1	26666.6
1829.6	26669.6
1831.1	26679.2
1832.59	26637
1834.09	26634.4
1835.59	26554.5
1837.08	26551.6
1838.58	26521.3
1840.07	26561.8
1841.57	26515.4
1843.06	26583.9
1844.56	26544.1
1846.05	26552.8
1847.54	26532.6
1849.04	26465.4
1850.53	26483.9
1852.02	26379.3
1853.52	26350
1855.01	26352.6
1856.5	26369.8
1857.99	26319.1
1859.49	26250.4
1860.98	26253.1
1862.47	26270.6
1863.96	26286
1865.45	26225.6
1866.94	26211.3
1868.43	26234.8
1869.92	26201.9
1871.41	26227.4
1872.9	26131.7
1874.39	26122.5
1875.88	26144.7
1877.37	26189.7
1878.85	26136.7
1880.34	26079.4
1881.83	26080.6
1883.32	25961.5
1884.8	25987.6
1886.29	25930.5
1887.78	25859.2
1889.26	25967.7
1890.75	25893.7
1892.23	25846.1
1893.72	25839.4
1895.21	25817.7
1896.69	25758.6
1898.17	25771.3
1899.66	25669.2
1901.14	25613.1
1902.63	25517.7
1904.11	25390
1905.59	25289.9
1907.08	25178.4
1908.56	25134.1
1910.04	25053.6
1911.52	24942.4
1913	24864.5
1914.49	24824.4
1915.97	24707.3
1917.45	24549
1918.93	24439.8
1920.41	24451.6
1921.89	24315.3
1923.37	24274.6
1924.85	24217.2
1926.33	24117.3
1927.81	24056.4
1929.29	24026.5
1930.76	23878.6
1932.24	23796.5
1933.72	23739.5
1935.2	23693.3
1936.67	23529.8
1938.15	23489.2
1939.63	23395.8
1941.1	23315.7
1942.58	23212.5
1944.06	23151.7
1945.53	23079.3
1947.01	23019.9
1948.48	22878.6
1949.96	22775.7
1951.43	22688.1
1952.91	22615.5
1954.38	22509.6
1955.86	22430.1
1957.33	22332.8
1958.8	22326.5
1960.27	22240.2
1961.75	22121.7
1963.22	22050.6
1964.69	22014.1
1966.16	21920.6
1967.64	21834.4
1969.11	21760
1970.58	21678.9
1972.05	21677.6
1973.52	21555.6
1974.99	21506.5
1976.46	21442.1
1977.93	21360.7
1979.4	21260.7
1980.87	21191.8
1982.34	21154
1983.81	21101.3
1985.27	21016.7
1986.74	20938.3
1988.21	20884.4
1989.68	20782.1
1991.14	20701.7
1992.61	20630.7
1994.08	20536.1
1995.55	20457.4
1997.01	20416
1998.48	20318.2
1999.94	20215
2001.41	20172.9
2002.87	20103.1
2004.34	20032.5
2005.8	20001.1
2007.27	19944.3
2008.73	19881.3
2010.19	19847
2011.66	19796.4
2013.12	19723
2014.58	19649
2016.05	19577.4
2017.51	19530.7
2018.97	19436.7
2020.43	19367.4
2021.89	19280.5
2023.36	19219.7
2024.82	19165.5
2026.28	19107.3
2027.74	19055.9
2029.2	19000
2030.66	18954.7
2032.12	18923.2
2033.58	18867.5
2035.04	18792.2
2036.49	18753.2
2037.95	18735
2039.41	18662.2
2040.87	18596.6
2042.33	18549.1
2043.78	18493.6
2045.24	18456.6
2045.76	18438
2047.22	18366
2048.69	18369.4
2050.15	18378.4
2051.61	18315.6
2053.07	18374.8
2054.54	18353.9
2056	18318.2
2057.46	18316.3
2058.92	18294.2
2060.38	18252.6
2061.84	18253.7
2063.3	18244.9
2064.76	18237.4
2066.22	18250.9
2067.68	18215.7
2069.14	18188.5
2070.6	18167.2
2072.06	18117.3
2073.52	18164.1
2074.98	18090.2
2076.44	18135
2077.89	18122
2079.35	18079.8
2080.81	18085.9
2082.27	18101.3
2083.72	18063.2
2085.18	18050.7
2086.63	17997
2088.09	17997.3
2089.55	17971.1
2091	17969.3
2092.46	18003.9
2093.91	17917.1
2095.37	17895.8
2096.82	17901.2
2098.28	17883.7
2099.73	17865.2
2101.18	17853.7
2102.64	17834.6
2104.09	17838.9
2105.54	17811.4
2106.99	17784.3
2108.45	17831
2109.9	17761.2
2111.35	17703.3
2112.8	17735.9
2114.25	17707.4
2115.71	17690.4
2117.16	17668.4
2118.61	17682.4
2120.06	17665
2121.51	17694.4
2122.96	17653.8
2124.4	17695.6
2125.85	17625.8
2127.3	17588.6
2128.75	17619.6
2130.2	17558.2
2131.65	17567.3
2133.09	17524.2
2134.54	17568.1
2135.99	17573.2
2137.44	17574
2138.88	17537.1
2140.33	17536.1
2141.78	17508.4
2143.22	17486.4
2144.67	17502.5
2146.11	17463.5
2147.56	17404.4
2149	17397.5
2150.45	17436.2
2151.89	17431.2
2153.34	17378.5
2154.78	17394.2
2156.22	17366.4
2157.67	17377
2159.11	17370.4
2160.55	17368.4
2162	17336
2163.44	17344.6
2164.88	17321.1
2166.32	17337.8
2167.76	17326.2
2169.2	17340
2170.64	17327.7
2172.09	17324.1
2173.53	17273.5
2174.97	17277
2176.41	17243.4
2177.85	17226.5
2179.29	17230.4
2180.72	17193.3
2182.16	17149.9
2183.6	17155.6
2185.04	17155.8
2186.48	17154.2
2187.92	17114.5
2189.35	17086.2
2190.79	17124
2192.23	17078.1
2193.66	17076.7
2195.1	17127.2
2196.54	17064.8
2197.97	17042.9
2199.41	17018.7
2200.84	17027
2202.28	17038.8
2203.71	16982.4
2205.15	16963.5
2206.58	16996.9
2208.02	16982.9
2209.45	16920.6
2210.88	16879.7
2212.32	16891.6
2213.75	16850.5
2215.18	16839.9
2216.62	16846.6
2218.05	16817.3
2219.48	16764.6
2220.91	16740.9
2222.34	16705.4
2223.78	16723.3
2225.21	16689.6
2226.64	16714.2
2228.07	16700.6
2229.5	16648.8
2230.93	16667
2232.36	16656.4
2233.79	16618.2
2235.22	16581
2236.65	16601.6
2238.07	16545.2
2239.5	16553.1
2240.93	16504.1
2242.36	16480.5
2243.79	16500
2245.21	16478.3
2246.64	16428.1
2248.07	16429.2
2249.49	16408.6
2250.92	16393.2
2252.35	16361.8
2253.77	16350.5
2255.2	16357.4
2256.62	16297.6
2258.05	16276
2259.47	16259.3
2260.9	16232.3
2262.32	16157
2263.75	16136.9
2265.17	16134.4
2266.59	16096.3
2268.02	16115
2269.44	16090.9
2270.86	16062.8
2272.29	16033.3
2273.71	16001.2
2275.13	16028.9
2276.55	16008.5
2277.97	15965.7
2279.39	15945.4
2280.81	15914.2
2282.24	15902.6
2283.66	15837.8
2285.08	15834.6
2286.5	15776.2
2287.92	15840.7
2289.34	15800.4
2290.75	15782.4
2292.17	15749.1
2293.59	15742.5
2295.01	15716.5
2296.43	15687.9
2297.85	15666.1
2299.26	15715.5
2300.68	15667.8
2302.1	15620.6
2303.51	15571.6
2304.93	15612.2
2306.35	15557
2307.76	15523.6
2309.18	15532.5
2310.6	15513.3
2312.01	15513.6
2313.43	15479.1
2314.84	15447.7
2316.25	15415.7
2317.67	15398.1
2319.08	15362.6
2320.5	15355.7
2321.91	15377.6
2323.32	15367.4
2324.74	15408
2326.15	15433.4
2327.56	15465.4
2328.98	15492
2330.39	15389.4
2331.8	15257.7
2333.21	15220.9
2334.62	15176
2336.03	15206
2337.44	15153
2338.85	15139.5
2340.26	15114.5
2341.67	15127.7
2343.08	15035.9
2344.49	15056.3
2345.9	15019.7
2347.31	15033.6
2348.72	15013.8
2350.13	14974.2
2351.54	14963.9
2352.94	14929.3
2354.35	14917.3
2355.76	14908.1
2357.17	14860.9
2358.57	14841.5
2359.98	14835.9
2361.39	14804
2362.79	14800.4
2364.2	14798
2365.6	14792.8
2367.01	14790.1
2368.41	14776.8
2369.82	14712.3
2371.22	14708.5
2372.63	14740.4
2374.03	14672.9
2375.44	14655
2376.84	14640.8
2378.24	14600.4
2379.65	14616.5
2381.05	14603.8
2382.45	14595
2383.85	14596.3
2385.26	14547.9
2386.66	14554.8
2388.06	14543
2389.46	14545.1
2390.86	14542
2392.26	14502.1
2393.66	14492.1
2395.06	14500.9
2396.46	14401.2
2397.86	14408.2
2399.26	14412.1
2400.66	14416.7
2402.06	14411.4
2403.46	14376.2
2404.86	14377.9
2406.26	14361.7
2407.66	14323.6
2409.05	14305.2
2410.45	14340.8
2411.85	14237.1
2413.24	14280.3
2414.64	14266.3
2416.04	14205
2417.43	14234.7
2418.83	14213.6
2420.23	14219.6
2421.62	14186.9
2423.02	14118.7
2424.41	14166.5
2425.81	14139.4
2427.2	14100.9
2428.6	14115.4
2429.99	14098.9
2431.38	14087.4
2432.78	14058.3
2434.17	14063.1
2435.56	14042.5
2436.96	14035.6
2438.35	13993.1
2439.74	14000.2
2441.13	14002.8
2442.53	13944.9
2443.92	13985.2
2445.31	13964.3
2446.7	13959.9
2448.09	13890.2
2449.48	13933.8
2450.87	13880.6
2452.26	13860.2
2453.65	13879
2455.04	13866.8
2456.43	13836.9
2457.82	13828.9
2459.21	13791.6
2460.6	13770.5
2461.98	13719
2463.37	13769.4
2464.76	13704.9
2466.15	13690.1
2467.53	13696.3
2468.92	13684.9
2470.31	13703.1
2471.7	13662.5
2473.08	13624
2474.47	13640.3
2475.85	13620.2
2477.24	13581.8
2478.63	13547.9
2480.01	13584.9
2481.39	13575
2482.78	13507
2484.16	13569.6
2485.55	13526.9
2486.93	13537.5
2488.32	13497.2
2489.7	13493.2
2491.08	13455.9
2492.46	13431.8
2493.85	13411.4
2495.23	13432.6
2496.61	13378
2497.99	13420.4
2499.38	13353.3
2500.76	13364.3
2502.14	13340.7
2503.52	13317.2
2504.9	13300.4
2506.28	13318.5
2507.66	13279.1
2509.04	13233.9
2510.42	13244.8
2511.8	13241.1
2513.18	13199.8
2514.56	13226.8
2515.94	13174.1
2517.31	13161.9
2518.69	13176
2520.07	13158.9
2521.45	13164.9
2522.82	13165
2524.2	13139.1
2525.58	13139.2
2526.96	13087.5
2528.33	13135.1
2529.71	13064.8
2531.09	13069.4
2532.46	13085.1
2533.84	13039.2
2535.21	13006.9
2536.59	13030.7
2537.96	13034.9
2539.34	13000.7
2540.71	13012
2542.08	12984.2
2543.46	12934.1
2544.83	12940.3
2546.2	12906.3
2547.58	12900.6
2548.95	12887.3
2550.32	12865.6
2551.7	12824.7
2553.07	12828.9
2554.44	12808.5
2555.81	12795.8
2557.18	12804.4
2558.55	12788.7
2559.92	12783.1
2561.29	12750.1
2562.66	12741.7
2564.03	12754.3
2565.4	12707.2
2566.77	12694.9
2568.14	12630.1
2569.51	12682.2
2570.88	12644.4
2572.25	12652
2573.62	12641.5
2574.99	12636.7
2576.35	12605
2577.72	12650
2579.09	12635.1
2580.46	12615.3
2581.82	12578.6
2583.19	12587.5
2584.56	12572.2
2585.92	12595.9
2587.29	12574.3
2588.65	12538
2590.02	12536.4
2591.38	12584.2
2592.75	12536.9
2594.11	12570.1
2595.48	12513.4
2596.84	12492.6
2598.21	12478.4
2599.57	12463.3
2600.93	12442.1
2602.3	12448.4
2603.66	12450.2
2605.02	12458.7
2606.39	12455.2
2607.75	12404.9
2609.11	12404.7
2610.47	12392.4
2611.83	12345.6
2613.19	12394
2614.56	12362.7
2615.92	12341.4
2617.28	12339.9
2618.64	12248.5
2620	12287.7
2621.36	12295.3
2622.72	12275.2
2624.08	12233.4
2625.44	12240.3
2626.8	12239.6
2628.15	12228.3
2629.51	12220.4
2630.87	12160.9
2632.23	12206.4
2633.59	12185.8
2634.94	12156.2
2636.3	12167.7
2637.66	12156.2
2639.01	12159.7
2640.37	12116.8
2641.73	12125.2
2643.08	12110.9
2644.44	12067
2645.79	12051.7
2647.15	12048.5
2648.5	12078.9
2649.86	12067.3
2651.21	12032.5
2652.57	12009.1
2653.92	12018
2655.28	11984.1
2656.63	12008.1
2657.98	12003.2
2659.33	11946.5
2660.69	11943.7
2662.04	11973.7
2663.39	11948.3
2664.75	11924.9
2666.1	11913
2667.45	11938.5
2668.8	11896.8
2670.15	11894.2
2671.5	11896.9
2672.85	11872.7
2674.2	11864.6
2675.55	11858.1
2676.9	11821.7
2678.25	11828.8
2679.6	11795
2680.95	11785.7
2682.3	11778.7
2683.65	11750.1
2685	11739.3
2686.35	11751.5
2687.7	11755.2
2689.04	11751.5
2690.39	11738.5
2691.74	11723.3
2693.09	11693.4
2694.43	11698.2
2695.78	11702.2
2697.13	11677
2698.47	11643.8
2699.82	11654.5
2701.16	11649.5
2702.51	11650.4
2703.85	11674.3
2705.2	11665.1
2706.54	11644.4
2707.89	11641.2
2709.23	11596.9
2710.58	11616.1
2711.92	11580.7
2713.26	11569
2714.61	11571.1
2715.95	11595.3
2717.29	11549.9
2718.64	11513.8
2719.98	11515.7
2721.32	11538.4
2722.66	11520.2
2724	11479
2725.35	11486
2726.69	11460.1
2728.03	11478.8
2729.37	11468.1
2730.71	11453.6
2732.05	11456.6
2733.39	11410.9
2734.73	11454
2736.07	11373
2737.41	11341.9
2738.75	11277.9
2740.09	11292.4
2741.42	11293.9
2742.76	11246.7
2744.1	11235.1
2745.44	11267.8
2746.78	11244.9
2748.11	11234.4
2749.45	11174.2
2750.79	11146.3
2752.12	11172.6
2753.46	11143.8
2754.8	11126.2
2756.13	11081.8
2757.47	11103.3
2758.81	11093.3
2760.14	11088.4
2761.47	11050.9
2762.81	11067.6
2764.14	11037.1
2765.48	11016.6
2766.81	11027.3
2768.15	11009
2769.48	11006.4
2770.81	10948.6
2772.15	10956.6
2773.48	10937.7
2774.81	10939.1
2776.14	10912.6
2777.48	10912
2778.81	10878
2780.14	10871.9
2781.47	10863.5
2782.8	10859.2
2784.13	10838.6
2785.47	10812.5
2786.8	10793.8
2788.13	10770.1
2789.46	10730.9
2790.79	10741
2792.12	10751.5
2793.44	10757.6
2794.77	10767.9
2796.1	10785.5
2797.43	10768.3
2798.76	10758.7
2800.09	10714.7
2801.42	10722.5
2802.74	10704.1
2804.07	10665.6
2805.4	10642.2
2806.73	10599.6
2808.05	10576.4
2809.38	10605.2
2810.71	10612
2812.03	10615.9
2813.36	10596.5
2814.68	10642
2816.01	10618.9
2817.33	10627.6
2818.66	10592
2819.98	10569.6
2821.31	10585.1
2822.63	10581.4
2823.96	10579.5
2825.28	10575.7
2826.6	10554.8
2827.93	10594.6
2829.25	10570.8
2830.57	10573.9
2831.9	10622.9
2833.22	10644
2834.54	10719
2835.86	10791.1
2837.19	10782.8
2838.51	10890.7
2839.83	10947.8
2841.15	11085
2842.47	11200.9
2843.79	11363.7
2845.11	11546.9
2846.43	11686.9
2847.75	11818.2
2849.07	11881.1
2850.39	11927
2851.71	11909.7
2853.03	11889.9
2854.35	11834.6
2855.66	11804.9
2856.98	11721.9
2858.3	11645.2
2859.62	11614.2
2860.94	11574.2
2862.25	11492.8
2863.57	11523.1
2864.89	11487.4
2866.2	11484.8
2867.52	11516.7
2868.84	11493.2
2870.15	11522
2871.47	11585.6
2872.78	11574.5
2874.1	11621.1
2875.41	11624.8
2876.73	11659.4
2878.04	11697.6
2879.36	11668.9
2880.67	11714.7
2881.98	11678.1
2883.3	11709.5
2884.61	11696.7
2885.92	11695.6
2887.24	11733.6
2888.55	11710.4
2889.86	11714
2891.18	11713.7
2892.49	11697.1
2893.8	11653.9
2895.11	11643.5
2896.42	11652.1
2897.73	11620.9
2899.04	11609.8
2900.35	11620.6
2901.67	11580.8
2902.97	11556.3
2904.29	11500.4
2905.59	11535.5
2906.9	11543.6
2908.21	11492.6
2909.52	11486.4
2910.83	11479.6
2912.14	11465.4
2913.45	11429.6
2914.76	11417.6
2916.06	11443.8
2917.37	11379.3
2918.68	11414.3
2919.99	11357.7
2921.29	11334.3
2922.6	11331.1
2923.91	11352
2925.21	11328.9
2926.52	11293.9
2927.82	11301.5
2929.13	11287.2
2930.44	11290.2
2931.74	11287.4
2933.05	11286.1
2934.35	11228.1
2935.65	11218.7
2936.96	11121.7
2938.26	11073.4
2939.57	11008.4
2940.87	10918.8
2942.17	10815.1
2943.48	10724.1
2944.78	10659.8
2946.08	10540.2
2947.38	10486.4
2948.69	10455.4
2949.99	10438.2
2951.29	10365
2952.59	10343.4
2953.89	10316.8
2955.19	10303.6
2956.49	10280.2
2957.8	10272.1
2959.1	10227.6
2960.4	10188.4
2961.7	10176.8
2962.99	10175.2
2964.29	10125.4
2965.59	10082.8
2966.89	10056.1
2968.19	10047.8
2969.49	9992.59
2970.79	9974.92
2972.09	9935.5
2973.38	9846.43
2974.68	9862.7
2975.98	9836.76
2977.28	9856.52
2978.57	9773.9
2979.87	9780.52
2981.17	9759.57
2982.46	9740.72
2983.76	9715.2
2985.05	9667.43
2986.35	9637.86
2987.65	9610.55
2988.94	9594.85
2990.24	9584.98
2991.53	9577.37
2992.82	9576.35
2994.12	9576.08
2995.41	9542.97
2996.71	9546.69
2998	9514.32
2999.29	9464.89
3000.59	9500.87
3001.88	9467.84
3003.17	9462.41
3004.47	9487.27
3005.76	9461
3007.05	9474.09
3008.34	9424.17
3009.63	9456
3010.92	9400.73
3012.21	9385.1
3013.5	9361.48
3014.8	9344.11
3016.09	9340.27
3017.38	9348.38
3018.67	9323.62
3019.96	9356.42
3021.25	9327.36
3022.54	9314.56
3023.82	9294.9
3025.11	9300.46
3026.4	9252.63
3027.69	9268.02
3028.98	9255.13
3030.27	9239.65
3031.55	9229.43
3032.84	9252.08
3034.13	9231.1
3035.42	9215.99
3036.7	9212.43
3037.99	9206.39
3039.28	9207.78
3040.56	9247.38
3041.85	9235.03
3043.13	9234.53
3044.42	9244.95
3045.7	9252.65
3046.99	9227.91
3048.27	9265.03
3049.56	9230.98
3050.84	9275.5
3052.13	9268.02
3053.41	9249.6
3054.69	9274.43
3055.98	9246.42
3057.26	9244.11
3058.54	9274.17
3059.83	9261.89
3061.11	9252.41
3062.39	9256.77
3063.67	9262.9
3064.95	9273.96
3066.24	9252.16
3067.52	9240.88
3068.8	9267.81
3070.08	9261.81
3071.36	9268.96
3072.64	9279.03
3073.92	9268.72
3075.2	9277.46
3076.48	9256.7
3077.76	9251.26
3079.04	9306.35
3080.32	9258.31
3081.6	9289.86
3082.88	9230.92
3084.16	9243.29
3085.44	9261.71
3086.71	9274.2
3087.99	9271.73
3089.27	9313.39
3090.55	9288.33
3091.82	9238.6
3093.1	9295.29
3094.38	9275.4
3095.65	9268.97
3096.93	9269.11
3098.21	9324.27
3099.48	9301.3
3100.76	9311.78
3102.03	9325.35
3103.31	9314.9
3104.58	9357.57
3105.86	9342.25
3107.13	9378.14
3108.41	9383.48
3109.68	9412.58
3110.96	9434.83
3112.23	9396.68
3113.5	9393.38
3114.78	9434.28
3116.05	9416.99
3117.32	9455.14
3118.59	9450.59
3119.87	9456.57
3121.14	9417.18
3122.41	9472.64
3123.68	9464.98
3124.95	9509.63
3126.23	9506.42
3127.5	9534.1
3128.77	9515.08
3130.04	9570.42
3131.31	9568.1
3132.58	9572.68
3133.85	9574.79
3135.12	9583.21
3136.39	9615
3137.66	9605.09
3138.93	9614.34
3140.2	9605.72
3141.46	9604.42
3142.73	9624.66
3144	9630.68
3145.27	9653.63
3146.54	9636.72
3147.8	9681.92
3149.07	9689.06
3150.34	9728.06
3151.6	9713.09
3152.87	9734.66
3154.14	9705.58
3155.4	9732.21
3156.67	9777.05
3157.94	9757.7
3159.2	9763.74
3160.47	9770.97
3161.73	9771.38
3163	9795.97
3164.26	9803.64
3165.53	9815.12
3166.79	9794.23
3168.05	9808.16
3169.32	9804.22
3170.58	9805.65
3171.84	9788.47
3173.11	9804.8
3174.37	9799.48
3175.63	9794.77
3176.9	9787.44
3178.16	9766.63
3179.42	9775.69
3180.68	9769.92
3181.94	9763.93
3183.21	9787.28
3184.47	9781.6
3185.73	9751.68
3186.99	9750.19
3188.25	9765.88
3189.51	9760.93
3190.77	9747.22
3192.03	9744.32
3193.29	9751.71
3194.55	9715.47
3195.81	9699.3
3197.07	9713.71
3198.33	9730.27
3199.58	9726.89
3200.84	9704.66
3202.1	9719.89
3203.36	9710.41
3204.62	9715.74
3205.87	9691.69
3207.13	9685.74
3208.39	9656.93
3209.65	9670.16
3210.9	9650.9
3212.16	9658.74
3213.41	9643.56
3214.67	9642.79
3215.93	9597.05
3217.18	9600.72
3218.44	9604.98
3219.69	9577.28
3220.95	9570.13
3222.2	9579.47
3223.46	9590.15
3224.71	9564.39
3225.97	9557.58
3227.22	9558.62
3228.47	9543.71
3229.73	9507.44
3230.98	9526.56
3232.23	9520.31
3233.48	9501.34
3234.74	9508.59
3235.99	9496.64
3237.24	9482.25
3238.49	9462.17
3239.75	9449.67
3241	9446.65
3242.25	9441.5
3243.5	9418.74
3244.75	9412.3
3246	9402.45
3247.25	9385.51
3248.5	9388.14
3249.75	9353.41
3251	9338.57
3252.25	9351.69
3253.5	9328.33
3254.75	9327.46
3256	9295.46
3257.25	9272.81
3258.49	9256.19
3259.74	9240.87
3260.99	9214.49
3262.24	9235.52
3263.49	9191.95
3264.73	9184.39
3265.98	9192.7
3267.23	9204.83
3268.47	9172.77
3269.72	9144.48
3270.97	9163.74
3272.21	9155.28
3273.46	9134.54
3274.7	9132.39
3275.95	9123.75
3277.2	9110.35
3278.44	9076.99
3279.69	9057.13
3280.93	9042.71
3282.17	9047.3
3283.42	9024.48
3284.66	9029.69
3285.91	9014.8
3287.15	9012.63
3288.39	8969.34
3289.64	8962.15
3290.88	8963.99
3292.12	8947.29
3292.31	8938.89
3293.56	8928.13
3294.8	8912.83
3296.05	8903.44
3297.3	8923.77
3298.55	8899.38
3299.79	8898.33
3301.04	8868.09
3302.29	8867.43
3303.54	8851.31
3304.78	8823.34
3306.03	8871.99
3307.27	8828.17
3308.52	8824.34
3309.76	8808.41
3311.01	8816.7
3312.26	8788.44
3313.5	8739.71
3314.75	8765.5
3315.99	8763.1
3317.23	8715.55
3318.48	8758.52
3319.72	8758.08
3320.97	8741.35
3322.21	8724.22
3323.45	8719.45
3324.7	8730.11
3325.94	8716.83
3327.18	8702.58
3328.42	8675.07
3329.67	8672.27
3330.91	8672.94
3332.15	8660.7
3333.39	8671.99
3334.63	8664.8
3335.87	8634.5
3337.12	8626.83
3338.36	8634.32
3339.6	8595.82
3340.84	8578.84
3342.08	8618.73
3343.32	8574.7
3344.56	8571.02
3345.8	8569.68
3347.04	8572.01
3348.27	8553.06
3349.51	8523.35
3350.75	8526.47
3351.99	8521.39
3353.23	8514.92
3354.47	8500.67
3355.7	8497
3356.94	8495.54
3358.18	8450.26
3359.42	8476.87
3360.65	8482.76
3361.89	8442.66
3363.13	8415.12
3364.36	8431.67
3365.6	8447.98
3366.83	8432.05
3368.07	8434.68
3369.31	8393.4
3370.54	8396.76
3371.78	8426.13
3373.01	8404.54
3374.25	8392.8
3375.48	8382.25
3376.71	8385.32
3377.95	8363.36
3379.18	8367.59
3380.42	8362.2
3381.65	8349.15
3382.88	8321.02
3384.12	8339.45
3385.35	8299.28
3386.58	8299.69
3387.81	8293.75
3389.04	8259.54
3390.28	8235.76
3391.51	8273.4
3392.74	8258.89
3393.97	8251.26
3395.2	8254.79
3396.43	8259.12
3397.67	8221.46
3398.9	8229.26
3400.13	8225
3401.36	8187.29
3402.58	8199.92
3403.82	8196.49
3405.05	8188.56
3406.27	8196.68
3407.5	8167.89
3408.73	8146.74
3409.96	8152.02
3411.19	8144.76
3412.42	8146.21
3413.64	8097.76
3414.87	8110.31
3416.1	8083.72
3417.33	8100.49
3418.55	8073.31
3419.78	8043.11
3421.01	8032.45
3422.23	8035.06
3423.46	8031.54
3424.69	7999.66
3425.91	7987.88
3427.14	7987.07
3428.36	7976.66
3429.59	7959.67
3430.81	7959.79
3432.04	7920.31
3433.26	7917.56
3434.49	7907.76
3435.71	7903.42
3436.94	7910.36
3438.16	7880.55
3439.39	7872.52
3440.61	7828.82
3441.83	7828.15
3443.05	7811.17
3444.28	7795.15
3445.5	7789.57
3446.72	7782.84
3447.95	7762.6
3449.17	7751.64
3450.39	7730.42
3451.61	7724.44
3452.83	7731.11
3454.05	7692.43
3455.27	7710.87
3456.5	7688.58
3457.71	7654.5
3458.94	7629.47
3460.16	7619.57
3461.38	7631.76
3462.59	7617.9
3463.81	7598.54
3465.03	7595.47
3466.25	7548.94
3467.47	7546.49
3468.69	7537.83
3469.91	7542.04
3471.13	7494.33
3472.35	7462.64
3473.56	7450.13
3474.78	7434.91
3476	7444.07
3477.22	7411.75
3478.43	7387.26
3479.65	7372.23
3480.87	7368.33
3482.08	7335.05
3483.3	7314.21
3484.52	7286.63
3485.73	7251.42
3486.95	7246.42
3488.16	7246.5
3489.38	7216.19
3490.59	7198.6
3491.81	7218.83
3493.02	7181
3494.24	7169.74
3495.45	7100.45
3496.67	7151.25
3497.88	7088.24
3499.09	7071.49
