#Acq. time (s)=	7
#Accumulations=	20
#Range (cm-¹)=	400...3500
#Windows=	3
#Auto scanning=	Off
#Autofocus=	Off
#AutoExposure=	Off
#Spike filter=	Multiple accum.
#Delay time (s)=	0
#Binning=	1
#Readout mode=	Signal
#DeNoise=	Off
#ICS correction=	On
#Dark correction=	Off
#Inst. Process=	Off
#Detector Gain=	Best Dynamic Range
#Detector ADC=	45 kHz       
#Detector temperature (°C)=	-60.1
#Instrument=	LabRAM HR Evol
#Detector=	Syncerity OE
#Objective=	x50_VIS_LWD
#Grating=	600 (500nm)
#ND Filter=	50%
#Laser=	532nm_Edge
#Hole=	199.981
#Range=	Visible
#E-Cal_Neon=	0
#StageXY=	75x50mm Scan+
#StageZ=	Z motor
#X (µm)=	0
#Y (µm)=	0
#Z (µm)=	946.1
#Spectral res.(cm-¹)=	12.8
#Full time(mm:ss)=	7:26
#AC=	Calibrated 2025-06-30 10:26
#Project=	
#Sample=	
#Site=	
#Title=	D_99
#Remark=	
#Date=	30.06.2025 14:54 (India Standard Time)
#Acquired=	30.06.2025 14:54:56 (India Standard Time)
#AxisType[0]=Intens
#AxisUnit[0]=Cnt
#AxisType[1]=Spectr
#AxisUnit[1]=1/cm
400.17	27557.6
401.945	27422.9
403.717	27426.9
405.491	27488.9
407.263	27517.9
409.036	27523.8
410.807	27573.8
412.58	27521
414.35	27540.6
416.122	27605.8
417.892	27658.9
419.663	27634.3
421.432	27637
423.203	27649.6
424.971	27653.7
426.741	27781
428.509	27695.6
430.276	27767.7
432.045	27800.4
433.812	27784.6
435.58	27861.7
437.346	27789.6
439.111	27791.3
440.879	27864
442.643	27845
444.408	27877.7
446.174	27859.1
447.938	27854
449.701	27897.9
451.467	27871.6
453.229	27860.8
454.992	27914.4
456.756	27930.7
458.518	27899.6
460.279	27905.8
462.043	27900.4
463.803	27897.7
465.564	27934.5
467.326	27932.2
469.086	27948
470.845	27971.3
472.604	28005.9
474.365	28015.5
476.123	28100.4
477.882	28069.8
479.639	27992.6
481.399	28038.7
483.156	28045.8
484.913	28126.6
486.669	28094
488.425	28152.4
490.183	28143.1
491.938	28139.7
493.693	28148.2
495.448	28203.2
497.202	28257.1
498.956	28279.5
500.712	28318.3
502.465	28383
504.218	28421.8
505.971	28418.5
507.723	28428.1
509.475	28423.4
511.227	28473.6
512.981	28536.6
514.732	28546.1
516.482	28542.1
518.233	28579.1
519.983	28522.1
521.732	28536.5
523.482	28515.9
525.231	28551.8
526.979	28590.1
528.728	28517
530.476	28549.9
532.223	28553.3
533.971	28538.3
535.718	28637.7
537.464	28541.6
539.211	28623.7
540.956	28587.6
542.702	28597.3
544.447	28593.2
546.192	28514.9
547.937	28658.5
549.681	28553.9
551.425	28564.5
553.169	28621.6
554.912	28682.1
556.655	28664.3
558.398	28679.9
560.14	28711.7
561.882	28698.1
563.624	28706.8
565.365	28754.4
567.106	28720.2
568.847	28778.9
570.585	28823.7
572.325	28874.3
574.065	28828.6
575.804	28842.5
577.543	28882.4
579.282	28917.7
581.02	28934.9
582.756	28988.3
584.494	28983.9
586.231	28979.4
587.968	28959
589.705	29059
591.441	29007
593.175	29073.4
594.911	29088.8
596.646	29074
598.381	29107.7
600.116	29080.6
601.848	29161.4
603.582	29117.4
605.316	29099.8
607.049	29159.5
608.78	29192.3
610.513	29171.2
612.245	29123.4
613.977	29126.4
615.707	29147
617.438	29201.7
619.17	29077
620.898	29119.4
622.629	29113.5
624.359	29067.5
626.086	29026.7
627.816	29032.6
629.545	29057.4
631.272	29019.7
633	28977.2
634.728	29037.2
636.454	28988.1
638.181	29047.5
639.908	29075.7
641.633	29129.5
643.36	29064.6
645.084	28980
646.81	28991.3
648.535	29044
650.258	28984.4
651.983	29018.9
653.705	29030.1
655.43	29071.1
657.153	29061.8
658.875	29085.4
660.598	29070.3
662.319	29073.9
664.041	29131.3
665.762	29104.4
667.483	29206.9
669.203	29189.6
670.924	29151
672.643	29173.7
674.364	29202.9
676.082	29125.1
677.802	29193.3
679.519	29273.3
681.238	29249.5
682.955	29325.6
684.674	29330.7
686.39	29397
688.106	29402.4
689.824	29360.1
691.539	29438.6
693.256	29421.1
694.971	29443.9
696.685	29435.5
698.401	29493.1
700.115	29514
701.83	29512.9
703.543	29519.8
705.256	29492.9
706.97	29498.4
708.682	29408.6
710.394	29434
712.107	29452.2
713.818	29389.8
715.529	29397
717.241	29437.3
718.952	29465.8
720.661	29482.6
722.373	29475.3
724.082	29501.4
725.791	29490.4
727.501	29472.1
729.209	29433.6
730.917	29444
732.625	29479
734.334	29489.1
736.041	29429.3
737.747	29467.6
739.453	29438.5
741.161	29433.7
742.867	29441.1
744.572	29386
746.277	29433.6
747.982	29472.7
749.688	29491.1
751.392	29525.2
753.096	29554.8
754.799	29573.7
756.502	29607.1
758.205	29627.5
759.909	29680
761.611	29641.1
763.313	29586.2
765.014	29658.7
766.715	29690.1
768.416	29778.7
770.116	29745.2
771.816	29802.6
773.516	29845.2
775.218	29865.4
776.917	29899
778.616	29829.7
780.314	29904.3
782.012	29891.3
783.71	29913.5
785.408	29965.9
787.105	29920.6
788.802	29966.5
790.498	29872.9
792.195	29897.7
793.891	29827.8
795.586	29888.8
797.281	29926.7
798.977	29911.3
800.671	29920
802.365	29912.8
804.06	29968.9
805.753	30001.9
807.447	29943.7
809.14	29934.8
810.832	29859.9
812.525	29889.9
814.217	29845.5
815.907	29863.7
817.598	29839.3
819.289	29875.1
820.98	29888.9
822.671	29939.3
824.361	30019.8
826.051	30044.8
827.74	30017.9
829.43	29973.3
831.117	29974.7
832.805	29946.4
834.494	30010
836.182	29951.3
837.869	29961.6
839.557	29910.6
841.242	29953.9
842.928	30007.8
844.615	30030.9
846.301	30093.6
847.987	30129.8
849.67	30116.8
851.355	30123.6
853.04	30154.5
854.724	30169.6
856.407	30129.8
858.091	30152
859.774	30238.8
861.457	30171.9
863.138	30214.4
864.821	30230.9
866.503	30164.2
868.183	30192.5
869.865	30150.5
871.546	30155.8
873.225	30237.5
874.906	30265.3
876.586	30264.5
878.264	30265.8
879.944	30182.4
881.624	30193.9
883.301	30196.7
884.98	30170.9
886.658	30226.3
888.334	30225.7
890.012	30230.1
891.688	30212.6
893.365	30202.1
895.042	30203.5
896.717	30211.7
898.393	30131.3
900.067	30143.5
901.743	30145.8
903.416	30177
905.091	30045.3
906.766	30018.7
908.438	30053.1
910.112	30065.6
911.784	29994.7
913.458	30068.1
915.129	29965.2
916.802	30000.2
918.472	29972.9
920.145	30001.4
921.815	29927.4
923.484	29922.7
925.156	29932
926.825	29837.2
928.495	29849.5
930.164	29806.2
931.834	29776.8
933.501	29825.8
935.171	29772.2
936.838	29802.7
938.505	29854.1
940.173	29925.3
941.84	29864.4
943.505	29878.6
945.173	29854.1
946.838	29845.6
948.505	29754.2
950.17	29836.6
951.834	29831.2
953.5	29855.3
955.164	29818.8
956.827	29827.5
958.492	29880
960.155	29879.9
961.818	29881.2
963.48	29948.6
965.144	29996.2
966.805	29909.9
968.467	29934.2
970.128	29936.2
971.79	29898.5
973.45	29923.4
975.11	29955.1
976.77	29851.4
978.432	29901.9
980.091	29924.2
981.749	29965.2
983.408	29977.2
985.068	29966.4
986.726	29977.7
988.383	29941.9
990.041	30041.6
991.698	30070
993.354	30027.9
995.012	30056.4
996.668	30075.7
998.324	30242.1
999.979	30325.2
1001.63	30339.3
1003.29	30371.8
1004.94	30395.6
1006.6	30339.9
1008.25	30220.9
1009.91	30159.6
1011.56	30065.3
1013.21	30078.7
1014.87	30207.7
1016.52	30236.7
1018.17	30084.1
1019.82	30068
1021.47	30102.2
1023.12	30032.4
1024.78	30011.7
1026.43	29898.5
1028.08	29925.4
1029.73	29961.6
1031.38	29929.4
1033.02	29907.5
1034.67	29874.7
1036.32	29860.6
1037.97	29872
1039.62	29867.7
1041.27	29874.1
1042.91	29854.5
1044.56	29782.7
1046.21	29853.6
1047.85	29810.3
1049.5	29823.8
1051.14	29824.2
1052.79	29769
1054.43	29855.3
1056.08	29888.5
1057.72	29848.4
1059.37	29905.2
1061.01	29946
1062.65	29993.8
1064.3	29983.1
1065.94	29967.8
1067.58	29962.4
1069.23	29941.3
1070.87	29882.2
1072.51	29975.7
1074.15	29957.5
1075.79	29987.9
1077.43	29970.9
1079.07	29998.7
1080.71	30026.2
1082.35	30001
1083.99	29928.7
1085.63	29998.8
1087.27	29905.2
1088.91	30075.9
1090.55	29901.1
1092.18	29852.5
1093.82	29790.6
1095.46	29721.7
1097.1	29708.9
1098.73	29637.6
1100.37	29599.8
1102	29590.3
1103.64	29585.8
1105.27	29518.4
1106.91	29533.5
1108.54	29539.3
1110.18	29517.5
1111.81	29545.5
1113.44	29572.7
1115.08	29604.8
1116.71	29619
1118.34	29681.1
1119.98	29732.3
1121.61	29677.1
1123.24	29689.7
1124.87	29659.8
1126.5	29604.2
1128.13	29572.1
1129.76	29512.7
1131.39	29414.8
1133.02	29396
1134.65	29347.1
1136.28	29371.6
1137.91	29225.5
1139.54	29281.1
1141.17	29262.1
1142.8	29303.3
1144.42	29365.2
1146.05	29284.2
1147.68	29404.4
1149.3	29463.6
1150.93	29575.6
1152.56	29707.8
1154.18	29731.5
1155.81	29781.4
1157.43	29803.3
1159.06	29711.9
1160.68	29614.2
1162.31	29476.9
1163.93	29338.6
1165.55	29172.5
1167.18	29146.5
1168.8	29078.7
1170.42	29100.5
1172.04	29035.4
1173.67	29036.2
1175.29	29049.7
1176.91	28967.9
1178.53	28970
1180.15	28972.7
1181.77	28874.8
1183.39	28894.9
1185.01	28956.1
1186.63	28938.7
1188.25	28916.9
1189.87	28894.9
1191.49	28875.8
1193.11	28910.3
1194.72	28908.1
1196.34	28824.2
1197.96	28908.5
1199.58	28827.1
1201.19	28905
1202.81	28816.8
1204.43	28829.3
1206.04	28901.6
1207.66	28878.2
1209.27	28876.2
1210.88	28906.7
1212.5	28923.9
1214.11	28803.3
1215.73	28812.7
1217.34	28785.3
1218.95	28749.9
1220.57	28847.6
1222.18	28786.3
1223.79	28828.2
1225.4	28789.8
1227.02	28795.2
1228.63	28848
1230.24	28788.6
1231.85	28818.3
1233.46	28789.9
1235.07	28839.3
1236.68	28790.7
1238.29	28771
1239.9	28756.8
1241.51	28882.9
1243.12	28883.2
1244.72	28925.6
1246.33	28929.4
1247.94	28928
1249.55	28890.5
1251.15	28866.2
1252.76	28864.1
1254.37	28915.5
1255.97	28810.9
1257.58	28806.3
1259.19	28873.5
1260.79	28909
1262.39	28820.5
1264	28858.7
1265.6	28857.8
1267.21	28892.8
1268.81	28800.8
1270.41	28767.8
1272.02	28787.4
1273.62	28717.4
1275.22	28684.7
1276.82	28698.9
1278.43	28616.3
1280.03	28608.3
1281.63	28587.2
1283.23	28624.3
1284.83	28697.2
1286.43	28557.4
1288.03	28552.1
1289.63	28581.7
1291.23	28650.4
1292.83	28721
1294.43	28760.6
1296.03	28867.1
1297.62	28949.7
1299.22	29038.5
1300.82	29049.1
1302.42	29098.7
1304.01	29053.8
1305.61	29007.6
1307.21	28970.3
1308.8	28887.8
1310.4	28862.7
1311.99	28720.8
1313.59	28672.8
1315.18	28561
1316.78	28487.4
1318.37	28448.8
1319.96	28447.3
1321.56	28368.8
1323.15	28394.2
1324.74	28341.6
1326.34	28300.1
1327.93	28257.4
1329.52	28298.2
1331.11	28281.3
1332.7	28267.8
1334.3	28280.6
1335.89	28237.8
1337.48	28218.2
1339.07	28307.6
1340.66	28274.3
1342.25	28183.7
1343.84	28145
1345.42	28138
1347.01	28118.5
1348.6	28147.4
1350.19	28099.4
1351.78	28134.4
1353.37	28075.2
1354.95	28006.5
1356.54	28014.3
1358.13	27894.2
1359.71	27819.4
1361.3	27870
1362.88	27874.8
1364.47	27821.3
1366.05	27825.6
1367.64	27786.3
1369.22	27790.4
1370.81	27775.2
1372.39	27712.5
1373.97	27681.1
1375.56	27560.8
1377.14	27525
1378.72	27547.9
1380.31	27472.1
1381.89	27437.6
1383.47	27379.5
1385.05	27379.5
1386.63	27374.1
1388.21	27397.8
1389.79	27427.7
1391.37	27344.1
1392.95	27448.8
1394.53	27393.5
1396.11	27326.3
1397.69	27293.7
1399.27	27277.7
1400.85	27263.2
1402.42	27238.2
1404	27186.5
1405.58	27202.7
1407.16	27262.5
1408.73	27233
1410.31	27242.1
1411.89	27235.8
1413.46	27261.6
1415.04	27323.8
1416.61	27381.4
1418.19	27322.6
1419.76	27380.6
1421.34	27364.8
1422.91	27368.5
1424.49	27469.2
1426.06	27409.8
1427.63	27546.9
1429.21	27667.1
1430.78	27860.2
1432.35	28127.8
1433.92	28279.4
1435.49	28449.1
1437.07	28540
1438.64	28656.5
1440.21	28621.2
1441.78	28661.4
1443.35	28540.8
1444.92	28539.3
1446.49	28484.1
1448.06	28427.5
1449.63	28383.5
1451.2	28255.6
1452.76	28211.2
1454.33	28124.5
1455.9	28138.4
1457.47	28043.8
1459.03	27971.7
1460.6	27908.2
1462.17	27783.3
1463.74	27724.6
1465.3	27586.6
1466.87	27456.8
1468.43	27441.5
1470	27256.8
1471.56	27134.6
1473.13	27047.5
1474.69	26894.1
1476.26	26850.9
1477.82	26749.1
1479.38	26619.2
1480.94	26593.8
1482.51	26556.3
1484.07	26560
1485.63	26471.8
1487.2	26441.5
1488.76	26453.6
1490.32	26462
1491.88	26433
1493.44	26397.2
1495	26489.4
1496.56	26464
1498.12	26473.2
1499.68	26438.9
1501.24	26338.4
1502.8	26317.8
1504.36	26382.9
1505.91	26436.2
1507.47	26388.1
1509.03	26423.1
1510.59	26539.4
1512.14	26548.7
1513.7	26537.9
1515.26	26551.9
1516.81	26659.3
1518.37	26729
1519.93	26727.6
1521.48	26697.2
1523.04	26750.4
1524.59	26657
1526.15	26579.2
1527.7	26514.4
1529.25	26380.3
1530.81	26315.3
1532.36	26217.8
1533.91	26178.1
1535.47	26022.1
1537.02	26004.2
1538.57	25966.3
1540.12	25926.1
1541.67	25948.4
1543.23	25957.2
1544.78	25877.8
1546.33	25799
1547.88	25802
1549.43	25769.4
1550.98	25742.2
1552.53	25710.7
1554.08	25716.1
1555.63	25853.9
1557.18	25761.6
1558.72	25737.1
1560.27	25705.5
1561.82	25732.7
1563.37	25729.4
1564.91	25734.7
1566.46	25711
1568.01	25716.8
1569.55	25673.8
1571.1	25639.5
1572.64	25697.7
1574.19	25637.7
1575.74	25518.3
1577.28	25669.8
1578.83	25596
1580.37	25588.3
1581.91	25591.7
1583.46	25588.6
1585	25580.3
1586.54	25592.1
1588.09	25525.1
1589.63	25515.2
1591.17	25532
1592.71	25468.8
1594.25	25513.9
1595.79	25489.2
1597.34	25481.2
1598.88	25470.9
1600.42	25544.9
1601.96	25492.5
1603.5	25458.2
1605.04	25423.6
1606.58	25413.6
1608.12	25396.5
1609.65	25366.2
1611.19	25304.3
1612.73	25266.9
1614.27	25258.3
1615.8	25267.1
1617.34	25270.9
1618.88	25209.8
1620.42	25206
1621.95	25126.6
1623.49	25147.4
1625.03	25124.3
1626.56	25083.6
1628.1	25132.9
1629.63	25155.3
1631.17	25163.3
1632.7	25188
1634.23	25149.9
1635.77	25105.1
1637.3	25125.2
1638.83	25161.7
1640.37	25187.9
1641.9	25117.2
1643.43	25133.1
1644.96	25181.7
1646.5	25262.5
1648.03	25363.1
1649.56	25468
1651.09	25523.8
1652.62	25519.4
1654.15	25584.8
1655.68	25554.8
1657.21	25475.1
1658.74	25432.2
1660.27	25335.8
1661.8	25146.8
1663.32	25079.1
1664.85	25029.7
1666.38	25028.8
1667.91	24986.2
1669.44	24982.3
1670.96	24942.5
1672.49	24924
1674.02	24896.1
1675.54	24776.5
1677.07	24717.1
1678.59	24706.6
1680.12	24589.6
1681.65	24493.2
1683.17	24560.6
1684.69	24460.9
1686.22	24474.6
1687.74	24400.9
1689.27	24368.3
1690.79	24335.3
1692.31	24317.4
1693.84	24257.3
1695.36	24263.1
1696.88	24205.8
1698.4	24161.8
1699.92	24116
1701.45	24054
1702.97	24053
1704.49	23993.8
1706.01	24026.6
1707.53	23984.3
1709.05	23937.4
1710.57	23923.5
1712.09	23859.3
1713.61	23870.8
1715.13	23859.7
1716.65	23786.8
1718.16	23802.7
1719.68	23793.5
1721.2	23811.4
1722.72	23737.4
1724.23	23764.2
1725.75	23787.3
1727.27	23733.8
1728.78	23764.7
1730.3	23708.7
1731.82	23761.4
1733.33	23727.3
1734.84	23751.1
1736.36	23761.3
1737.87	23775
1739.39	23792.2
1740.9	23798.2
1742.42	23794.8
1743.93	23811
1745.44	23730.7
1746.96	23807.7
1748.47	23813.2
1749.98	23746.4
1751.49	23725.7
1753	23658.9
1754.51	23584.5
1756.03	23545.4
1757.54	23433.7
1759.05	23423.6
1760.56	23353
1762.07	23333.9
1763.58	23268.2
1765.09	23247.8
1766.6	23276.2
1768.11	23241.3
1769.61	23246
1771.12	23170.7
1772.63	23221.4
1774.14	23213.6
1775.65	23166.4
1777.15	23134.6
1778.66	23157.3
1780.17	23144.6
1781.67	23149.5
1783.18	23080.8
1784.68	23054
1786.19	23156.9
1787.7	23127.7
1789.2	23138.4
1790.71	23076.2
1792.21	23014
1793.71	23062.3
1795.22	22975.8
1796.72	23017.9
1798.22	22982
1799.73	22952.3
1801.23	22896
1802.73	22834.6
1804.23	22890.2
1805.74	22867.8
1807.24	22822.6
1808.74	22847.5
1810.24	22873.3
1811.74	22849.8
1813.24	22871.7
1814.74	22836.8
1816.24	22796.6
1817.74	22769.6
1819.24	22704.5
1820.74	22696.7
1822.24	22735.5
1823.74	22722.6
1825.23	22680.3
1826.73	22631.6
1828.23	22671
1829.73	22761.8
1831.22	22684
1832.72	22626.2
1834.22	22636.4
1835.71	22556.3
1837.21	22579.9
1838.71	22576.4
1840.2	22549.5
1841.7	22555.6
1843.19	22523.6
1844.68	22564.1
1846.18	22540.4
1847.67	22546.3
1849.17	22435.5
1850.66	22474.8
1852.15	22393.7
1853.65	22402.4
1855.14	22377.4
1856.63	22401.2
1858.12	22372.4
1859.62	22286.1
1861.11	22306.7
1862.6	22280.4
1864.09	22317.2
1865.58	22280.5
1867.07	22331.8
1868.56	22234
1870.05	22240.9
1871.54	22231.2
1873.03	22173.9
1874.52	22203.7
1876.01	22226.9
1877.49	22194.9
1878.98	22158.1
1880.47	22158.5
1881.96	22120.1
1883.45	22091
1884.93	22031.4
1886.42	21993.3
1887.91	21939.7
1889.39	21980.6
1890.88	21992.3
1892.36	21921.3
1893.85	21926
1895.34	21912.2
1896.82	21868.2
1898.3	21799.6
1899.79	21757.2
1901.27	21652
1902.76	21647.5
1904.24	21578
1905.72	21508.3
1907.2	21413.9
1908.69	21310.6
1910.17	21264.1
1911.65	21200.6
1913.13	21146.2
1914.62	21062.1
1916.1	20990.2
1917.58	20884.7
1919.06	20814
1920.54	20776.7
1922.02	20691.5
1923.5	20648.8
1924.98	20601.9
1926.46	20511
1927.94	20487.5
1929.42	20406.6
1930.89	20374.9
1932.37	20272.5
1933.85	20229.2
1935.33	20154.6
1936.81	20066.2
1938.28	19994.6
1939.76	19968.1
1941.24	19856.1
1942.71	19849
1944.19	19768.4
1945.66	19702
1947.14	19649
1948.61	19539.6
1950.09	19494.5
1951.57	19413.8
1953.04	19306.8
1954.51	19256.9
1955.99	19179.1
1957.46	19113.4
1958.93	19072.5
1960.41	18987.5
1961.88	18967.3
1963.35	18898
1964.82	18816.5
1966.3	18771.3
1967.77	18699.6
1969.24	18678.3
1970.71	18617.8
1972.18	18532.3
1973.65	18494.1
1975.12	18450.7
1976.59	18424.3
1978.06	18320.8
1979.53	18290.1
1981	18182.4
1982.47	18191.2
1983.94	18113.7
1985.41	18074.9
1986.87	18006.9
1988.34	17952.1
1989.81	17883.7
1991.28	17818.7
1992.74	17724.2
1994.21	17673.5
1995.68	17627
1997.14	17578.1
1998.61	17493.8
2000.07	17466.1
2001.54	17374.5
2003.01	17330
2004.47	17281.3
2005.94	17244.4
2007.4	17201.8
2008.86	17182.6
2010.33	17152.4
2011.79	17074.2
2013.25	17043.1
2014.72	17014.8
2016.18	16939.2
2017.64	16899.3
2019.1	16844.1
2020.57	16763.3
2022.03	16721.4
2023.49	16633.6
2024.95	16628.2
2026.41	16577.6
2027.87	16521
2029.33	16490.7
2030.79	16476.9
2032.25	16413.2
2033.71	16370.8
2035.17	16328.4
2036.63	16308.7
2038.09	16277.5
2039.54	16220.9
2041	16181.6
2042.46	16152.4
2043.92	16102.4
2045.38	16084.8
2045.86	16077.2
2047.32	16000.1
2048.79	16024.9
2050.25	15994.1
2051.71	15983.4
2053.17	15977.3
2054.64	15997.1
2056.1	16001.5
2057.56	15930.7
2059.02	15951.8
2060.48	15938.6
2061.94	15938.5
2063.4	15942.3
2064.86	15892.8
2066.32	15905.2
2067.78	15897
2069.24	15877.5
2070.7	15889.9
2072.16	15820.7
2073.62	15844.8
2075.08	15855.8
2076.54	15816.6
2077.99	15835.6
2079.45	15804.6
2080.91	15813.1
2082.37	15774.7
2083.82	15784.9
2085.28	15801.4
2086.74	15763.4
2088.19	15740.6
2089.65	15731.4
2091.1	15729.6
2092.56	15713.9
2094.01	15685.7
2095.47	15666.7
2096.92	15642.9
2098.38	15662.2
2099.83	15631.4
2101.29	15619.6
2102.74	15555.2
2104.19	15592.8
2105.64	15562
2107.1	15570
2108.55	15554.2
2110	15538.2
2111.45	15538
2112.91	15505.4
2114.36	15487
2115.81	15460.1
2117.26	15464.7
2118.71	15481.1
2120.16	15457.2
2121.61	15460.3
2123.06	15442.8
2124.51	15382.4
2125.96	15418.5
2127.4	15384.5
2128.85	15355.9
2130.3	15404.2
2131.75	15363.3
2133.2	15344.8
2134.65	15374.4
2136.09	15372.5
2137.54	15372.4
2138.99	15363.9
2140.43	15344.7
2141.88	15314.5
2143.32	15279.6
2144.77	15322.6
2146.22	15292.5
2147.66	15284.6
2149.11	15271.3
2150.55	15252.3
2152	15258.5
2153.44	15241.6
2154.88	15236.8
2156.33	15222.1
2157.77	15241.5
2159.21	15244.5
2160.66	15231.2
2162.1	15218.6
2163.54	15154
2164.98	15215.1
2166.43	15175.9
2167.87	15188.8
2169.31	15195.1
2170.75	15164.8
2172.19	15135.7
2173.63	15154.8
2175.07	15104.3
2176.51	15156.7
2177.95	15142.4
2179.39	15124.8
2180.83	15092.8
2182.27	15039.9
2183.71	15057.7
2185.14	15036.6
2186.58	15046.4
2188.02	15019.8
2189.46	15013.4
2190.9	15020.9
2192.33	14998.8
2193.77	14996
2195.21	15006.3
2196.64	14976.2
2198.08	14969.1
2199.51	14978.3
2200.95	14965.9
2202.39	14947.5
2203.82	14919.9
2205.25	14921.1
2206.69	14916.3
2208.12	14884.6
2209.56	14870.9
2210.99	14835.8
2212.42	14868.9
2213.86	14801.4
2215.29	14805.4
2216.72	14776.6
2218.15	14805.2
2219.59	14742.2
2221.02	14735.4
2222.45	14734.4
2223.88	14727
2225.31	14688.7
2226.74	14682
2228.17	14676.9
2229.6	14657.7
2231.03	14631.8
2232.46	14655.8
2233.89	14603.8
2235.32	14587
2236.75	14588.5
2238.18	14560.9
2239.61	14575
2241.04	14548.8
2242.46	14508.3
2243.89	14557.4
2245.32	14486.3
2246.75	14443.2
2248.17	14506.9
2249.6	14445.6
2251.03	14452.2
2252.45	14466.7
2253.88	14427
2255.31	14373.3
2256.73	14382.1
2258.16	14333.7
2259.58	14322.2
2261	14331.3
2262.43	14277.9
2263.85	14285.1
2265.28	14205.4
2266.7	14199.3
2268.12	14193.7
2269.55	14188.6
2270.97	14134
2272.39	14146.6
2273.81	14098.2
2275.24	14101.5
2276.66	14113.2
2278.08	14101
2279.5	14099
2280.92	14038.4
2282.34	14048.2
2283.76	13984.8
2285.18	13992.5
2286.6	13948.7
2288.02	13970.2
2289.44	13975.6
2290.86	13936.5
2292.28	13913.8
2293.7	13914.6
2295.12	13882.1
2296.54	13878.4
2297.95	13869.1
2299.37	13845.5
2300.79	13811.5
2302.21	13821.1
2303.62	13742.9
2305.04	13813.3
2306.46	13738.8
2307.87	13707.5
2309.29	13744
2310.7	13717.1
2312.12	13698.5
2313.53	13682.4
2314.95	13671.3
2316.36	13648.5
2317.78	13625.8
2319.19	13622
2320.61	13616.6
2322.02	13561.9
2323.43	13586.3
2324.85	13573.1
2326.26	13602.6
2327.67	13666.5
2329.08	13697.1
2330.5	13757.3
2331.91	13634
2333.32	13525.7
2334.73	13439.7
2336.14	13402.5
2337.55	13444.1
2338.96	13398.7
2340.37	13446.3
2341.78	13438.1
2343.19	13380
2344.6	13411.4
2346.01	13340.5
2347.42	13330.4
2348.83	13301.1
2350.24	13280.5
2351.65	13272.1
2353.05	13248.3
2354.46	13253.2
2355.87	13194.3
2357.28	13187.2
2358.68	13174.1
2360.09	13192.9
2361.5	13150
2362.9	13130.1
2364.31	13120.8
2365.71	13075.8
2367.12	13136.1
2368.52	13074
2369.93	13097.4
2371.33	13085.2
2372.74	12978.9
2374.14	13036.9
2375.55	13000.8
2376.95	13042.1
2378.35	12990
2379.76	12998.6
2381.16	12952.3
2382.56	12978.7
2383.96	12944.2
2385.37	12921.4
2386.77	12941.9
2388.17	12892.1
2389.57	12925
2390.97	12899.5
2392.37	12856.7
2393.77	12847.6
2395.17	12836.9
2396.57	12830.4
2397.97	12794.8
2399.37	12800.3
2400.77	12792.4
2402.17	12795.2
2403.57	12761.8
2404.97	12751.5
2406.37	12722.3
2407.77	12734.6
2409.16	12713.4
2410.56	12731.8
2411.96	12689.5
2413.36	12698.2
2414.75	12645.6
2416.15	12650.6
2417.55	12658.4
2418.94	12648.4
2420.34	12614.2
2421.73	12592.8
2423.13	12604.7
2424.52	12582.5
2425.92	12577.5
2427.31	12544.1
2428.71	12555.1
2430.1	12553.7
2431.5	12533.1
2432.89	12518.7
2434.28	12499.8
2435.68	12501.6
2437.07	12448.1
2438.46	12476.3
2439.85	12479.2
2441.25	12482.6
2442.64	12457.2
2444.03	12435.8
2445.42	12425
2446.81	12403.4
2448.2	12368.8
2449.59	12407.2
2450.98	12376
2452.37	12357.4
2453.76	12366.4
2455.15	12336.5
2456.54	12315.3
2457.93	12318.3
2459.32	12321.8
2460.71	12304
2462.1	12265.9
2463.49	12277.5
2464.87	12252.5
2466.26	12221.2
2467.65	12228
2469.04	12227.9
2470.42	12192.6
2471.81	12170.3
2473.2	12174.2
2474.58	12169.4
2475.97	12149.3
2477.35	12131.6
2478.74	12132.1
2480.12	12126.9
2481.51	12136.4
2482.89	12126.6
2484.28	12097.9
2485.66	12081.7
2487.05	12081.4
2488.43	12104.9
2489.81	12083.9
2491.2	12036.4
2492.58	12013.2
2493.96	11993.6
2495.34	11995.6
2496.73	11995.7
2498.11	12003.9
2499.49	11969.7
2500.87	11952.2
2502.25	11928
2503.63	11923
2505.01	11898.6
2506.39	11893.7
2507.77	11868
2509.15	11877.7
2510.53	11838.3
2511.91	11858.1
2513.29	11831.1
2514.67	11805
2516.05	11800.4
2517.43	11802.7
2518.81	11789.9
2520.19	11799.9
2521.56	11798.8
2522.94	11798.4
2524.32	11770.3
2525.7	11759.1
2527.07	11754.1
2528.45	11727.5
2529.82	11732.3
2531.2	11718.5
2532.58	11718.6
2533.95	11691.3
2535.33	11651.7
2536.7	11671.4
2538.08	11660.1
2539.45	11654.2
2540.82	11673.6
2542.2	11595.2
2543.57	11591.1
2544.95	11592.8
2546.32	11546.9
2547.69	11542.8
2549.07	11538.7
2550.44	11518.3
2551.81	11497.4
2553.18	11503.3
2554.55	11490.4
2555.93	11470.9
2557.3	11472.9
2558.67	11494.2
2560.04	11455.8
2561.41	11424.7
2562.78	11424.6
2564.15	11436.7
2565.52	11396.9
2566.89	11425.5
2568.26	11374.5
2569.63	11348.1
2571	11367.8
2572.36	11355.5
2573.73	11349.2
2575.1	11373.7
2576.47	11381.1
2577.84	11357.7
2579.2	11318.2
2580.57	11345.1
2581.94	11353.9
2583.31	11351
2584.67	11307.5
2586.04	11289.8
2587.4	11285.9
2588.77	11280.1
2590.14	11261.4
2591.5	11301
2592.87	11240.4
2594.23	11263.4
2595.6	11271.6
2596.96	11249.8
2598.32	11222.5
2599.69	11205.4
2601.05	11190
2602.41	11184.2
2603.78	11204.1
2605.14	11201.3
2606.5	11177.9
2607.86	11191.5
2609.23	11161.6
2610.59	11153.8
2611.95	11153.8
2613.31	11167.3
2614.67	11128.1
2616.03	11124.5
2617.4	11101.5
2618.75	11072.5
2620.11	11094
2621.48	11084
2622.83	11027.5
2624.19	11063.1
2625.55	11058.4
2626.91	11036.2
2628.27	11014.6
2629.63	11020.1
2630.99	10967.2
2632.35	11002.6
2633.7	10986.3
2635.06	10997.6
2636.42	10978.2
2637.77	10975.3
2639.13	10947.5
2640.49	10923.4
2641.84	10905.2
2643.2	10928.2
2644.56	10902
2645.91	10911.6
2647.27	10916.2
2648.62	10897.1
2649.98	10882.4
2651.33	10841.7
2652.69	10862
2654.04	10838.2
2655.4	10844.4
2656.75	10837.5
2658.1	10823.1
2659.45	10793.7
2660.81	10815.1
2662.16	10826.4
2663.51	10809.8
2664.86	10801.1
2666.22	10783.5
2667.57	10787.1
2668.92	10776.2
2670.27	10739.8
2671.62	10727.8
2672.97	10729
2674.32	10714.4
2675.67	10729.3
2677.02	10716.3
2678.37	10723.2
2679.72	10709.1
2681.07	10676.7
2682.42	10660.4
2683.77	10682
2685.12	10657.6
2686.47	10627.7
2687.81	10624.7
2689.16	10645.7
2690.51	10641.2
2691.86	10634.7
2693.21	10615.3
2694.55	10585.6
2695.9	10589.4
2697.25	10571.9
2698.59	10583.3
2699.94	10552.8
2701.28	10602.9
2702.63	10582.2
2703.97	10583.1
2705.32	10584.4
2706.66	10565.7
2708.01	10560.5
2709.35	10566.6
2710.7	10538.4
2712.04	10541.9
2713.39	10525.7
2714.73	10489.8
2716.07	10513.6
2717.41	10503.4
2718.76	10504.1
2720.1	10484.5
2721.44	10484.4
2722.78	10428.6
2724.12	10418
2725.47	10474.5
2726.81	10434.5
2728.15	10440
2729.49	10401.9
2730.83	10437
2732.17	10412.8
2733.51	10385.2
2734.85	10371.4
2736.19	10357.9
2737.53	10332.2
2738.87	10287.3
2740.21	10309.2
2741.55	10266.1
2742.88	10287.7
2744.22	10265.9
2745.56	10260.1
2746.9	10226.6
2748.24	10201.7
2749.57	10201.1
2750.91	10163.1
2752.25	10157.5
2753.58	10146.8
2754.92	10141.2
2756.25	10128.4
2757.59	10119.5
2758.93	10132.4
2760.26	10112.2
2761.6	10075
2762.93	10091.2
2764.27	10113.2
2765.6	10075.4
2766.93	10058.9
2768.27	10038.3
2769.6	10053.9
2770.94	10037.7
2772.27	10027
2773.6	9984.77
2774.93	9974.27
2776.27	9988.83
2777.6	9994.43
2778.93	9962.41
2780.26	9967.48
2781.59	9917.95
2782.93	9898.17
2784.26	9895.38
2785.59	9894.89
2786.92	9875.65
2788.25	9856.01
2789.58	9834.44
2790.91	9842.58
2792.24	9870.65
2793.57	9856.62
2794.9	9853.36
2796.23	9833.58
2797.56	9843.65
2798.88	9842.77
2800.21	9804.61
2801.54	9798.66
2802.87	9802.17
2804.2	9761.48
2805.52	9724.56
2806.85	9762.68
2808.18	9745.3
2809.5	9758.13
2810.83	9710.22
2812.16	9746.66
2813.48	9744.37
2814.81	9754.46
2816.13	9754.28
2817.46	9681.76
2818.78	9720.59
2820.11	9710.03
2821.43	9712
2822.76	9715.92
2824.08	9696.56
2825.4	9681.2
2826.73	9666.6
2828.05	9683.35
2829.37	9712.76
2830.7	9708.53
2832.02	9739.43
2833.34	9744.09
2834.66	9777.02
2835.99	9804.11
2837.31	9827.24
2838.63	9871.53
2839.95	9922.59
2841.27	10028.7
2842.59	10118.4
2843.91	10230.4
2845.23	10390.5
2846.55	10591.4
2847.87	10785.2
2849.19	10891.5
2850.51	11006
2851.83	11030.4
2853.15	11036.2
2854.47	11020.4
2855.79	10978.9
2857.11	10913.1
2858.43	10865.7
2859.74	10780.5
2861.06	10725.3
2862.38	10709.5
2863.69	10663.6
2865.01	10656.5
2866.33	10629.9
2867.65	10603.2
2868.96	10615.4
2870.28	10637.4
2871.59	10629.5
2872.91	10671.5
2874.22	10697.4
2875.54	10728.9
2876.85	10736.3
2878.17	10754.5
2879.48	10701.4
2880.8	10774.6
2882.11	10713.4
2883.42	10759.2
2884.74	10803.2
2886.05	10791.5
2887.36	10844.4
2888.68	10864.3
2889.99	10865.6
2891.3	10861.2
2892.61	10833.7
2893.93	10854.9
2895.24	10826.6
2896.55	10813
2897.86	10821.9
2899.17	10831.6
2900.48	10826.8
2901.79	10809.5
2903.1	10778.1
2904.41	10749.1
2905.72	10717
2907.03	10718.1
2908.34	10684.3
2909.65	10649.2
2910.96	10693.5
2912.27	10668.5
2913.57	10648.2
2914.88	10672.9
2916.19	10646.2
2917.5	10645.6
2918.81	10627.3
2920.11	10656.1
2921.42	10607
2922.73	10580.7
2924.03	10578.2
2925.34	10557.1
2926.64	10555.9
2927.95	10562.3
2929.26	10596.1
2930.56	10594.1
2931.87	10579.1
2933.17	10530.6
2934.48	10504.3
2935.78	10502.1
2937.09	10443.7
2938.39	10416.5
2939.69	10372.4
2941	10279.5
2942.3	10192.3
2943.6	10105.2
2944.91	9999.25
2946.21	9926.28
2947.51	9848.13
2948.81	9773.02
2950.12	9719.39
2951.42	9684.02
2952.72	9640.83
2954.02	9590.55
2955.32	9631.54
2956.62	9577.02
2957.92	9539.15
2959.22	9523.01
2960.52	9493.64
2961.82	9495.19
2963.12	9487.12
2964.42	9432.41
2965.72	9407.99
2967.02	9358.33
2968.32	9343.89
2969.62	9344.06
2970.92	9279.57
2972.21	9211.35
2973.51	9209.93
2974.81	9163.18
2976.11	9134.12
2977.4	9151.35
2978.7	9103.4
2980	9094.32
2981.29	9078.63
2982.59	9077.01
2983.89	9043.96
2985.18	8998.15
2986.48	8985.67
2987.77	8935.63
2989.07	8933.53
2990.36	8931.89
2991.66	8910.42
2992.95	8891.35
2994.25	8864.22
2995.54	8870.96
2996.84	8877.63
2998.13	8835.14
2999.42	8824.63
3000.72	8819.93
3002.01	8789.37
3003.3	8822.33
3004.59	8804.43
3005.89	8825.92
3007.18	8775.64
3008.47	8774.15
3009.76	8741.5
3011.05	8730.42
3012.34	8717.74
3013.63	8679.13
3014.93	8700.97
3016.22	8660.39
3017.5	8652.93
3018.8	8623.72
3020.09	8665.07
3021.38	8672.64
3022.67	8628.88
3023.95	8657.53
3025.24	8626.59
3026.53	8592.86
3027.82	8605.66
3029.11	8574.79
3030.4	8540.24
3031.68	8548.82
3032.97	8558.87
3034.26	8560.92
3035.54	8542.98
3036.83	8554.65
3038.12	8545.26
3039.4	8535.63
3040.69	8516.38
3041.98	8547.86
3043.26	8564.98
3044.55	8522.71
3045.83	8529.67
3047.12	8520.45
3048.4	8521.75
3049.69	8517
3050.97	8562.81
3052.26	8523.35
3053.54	8532.4
3054.82	8550.18
3056.11	8543.56
3057.39	8535.25
3058.67	8546.85
3059.96	8541.14
3061.24	8539.75
3062.52	8518.84
3063.8	8562.04
3065.09	8537.87
3066.37	8546.18
3067.65	8564.65
3068.93	8535.73
3070.21	8537.75
3071.49	8525.8
3072.77	8550.41
3074.05	8557.88
3075.33	8535.02
3076.61	8525.38
3077.89	8511.56
3079.17	8535.22
3080.45	8498.11
3081.73	8523.65
3083.01	8515.94
3084.29	8503.3
3085.57	8491.37
3086.84	8525.77
3088.12	8510.12
3089.4	8540.03
3090.68	8534.07
3091.95	8512.18
3093.23	8506.38
3094.51	8551.9
3095.79	8523.47
3097.06	8481.66
3098.34	8467.25
3099.61	8502.94
3100.89	8506.09
3102.17	8507.17
3103.44	8518.18
3104.72	8542.78
3105.99	8546.44
3107.27	8588.08
3108.54	8576.15
3109.81	8580.56
3111.09	8584.39
3112.36	8575.69
3113.63	8577.3
3114.91	8592.12
3116.18	8593.2
3117.46	8575.06
3118.73	8597.19
3120	8623.8
3121.27	8625.29
3122.54	8619.11
3123.82	8594.93
3125.09	8627.01
3126.36	8630.76
3127.63	8643.99
3128.9	8632.23
3130.17	8663.46
3131.44	8649.24
3132.71	8670.19
3133.98	8717.41
3135.25	8680.93
3136.52	8672.12
3137.79	8706.61
3139.06	8724.33
3140.33	8698.7
3141.6	8707.99
3142.86	8712.86
3144.13	8696.82
3145.4	8718.72
3146.67	8741.63
3147.94	8760.94
3149.2	8776.04
3150.47	8789.53
3151.74	8773.78
3153	8803.5
3154.27	8789.49
3155.54	8791.93
3156.8	8830.03
3158.07	8812.67
3159.34	8824.61
3160.6	8799.47
3161.86	8789.29
3163.13	8815.98
3164.4	8819.48
3165.66	8837.51
3166.92	8816.62
3168.19	8834.83
3169.45	8833.49
3170.72	8851.51
3171.98	8807.58
3173.24	8832.91
3174.5	8843
3175.77	8800.39
3177.03	8801.37
3178.29	8796.16
3179.56	8774.3
3180.82	8788.58
3182.08	8751.34
3183.34	8745.79
3184.6	8767.93
3185.86	8759.5
3187.12	8757.97
3188.38	8757.53
3189.64	8749.7
3190.9	8721.86
3192.16	8721.24
3193.42	8702.65
3194.68	8690.83
3195.94	8681.42
3197.2	8692.33
3198.46	8661.11
3199.72	8668.25
3200.98	8653.33
3202.24	8661.43
3203.49	8644.4
3204.75	8654.89
3206.01	8647.35
3207.27	8647.1
3208.52	8642.04
3209.78	8610.98
3211.04	8594.73
3212.29	8586.17
3213.55	8569.75
3214.81	8558.64
3216.06	8522.05
3217.32	8533.56
3218.57	8522.56
3219.83	8535.11
3221.08	8496.1
3222.34	8527.68
3223.59	8516.76
3224.85	8488.55
3226.1	8497.84
3227.35	8475.54
3228.61	8463.46
3229.86	8460.67
3231.11	8446.64
3232.37	8441.51
3233.62	8426.26
3234.87	8429.84
3236.12	8415.25
3237.38	8395.5
3238.63	8388.63
3239.88	8368.4
3241.13	8367.47
3242.38	8354.44
3243.63	8331.43
3244.89	8325.73
3246.14	8326.33
3247.39	8302.87
3248.64	8286.09
3249.89	8271.63
3251.14	8271.43
3252.39	8263.22
3253.64	8239.96
3254.88	8210.84
3256.13	8197.92
3257.38	8192.27
3258.63	8164.01
3259.88	8146.11
3261.13	8126.63
3262.37	8129.96
3263.62	8124.36
3264.87	8115.23
3266.12	8114.96
3267.36	8097.18
3268.61	8081.22
3269.86	8074.9
3271.1	8069.71
3272.35	8072.79
3273.6	8059.53
3274.84	8031.54
3276.09	8018.29
3277.33	8007.89
3278.58	7999.73
3279.82	7984.85
3281.07	7960.72
3282.31	7951.12
3283.56	7943.95
3284.8	7927.17
3286.04	7902.81
3287.29	7892.9
3288.53	7894.46
3289.77	7884.18
3291.02	7884.48
3292.26	7875.32
3292.9	7855.67
3294.15	7827.83
3295.39	7827.19
3296.64	7805.28
3297.89	7806.02
3299.14	7802.32
3300.38	7809.34
3301.63	7789.07
3302.88	7781.88
3304.12	7753.34
3305.37	7754.76
3306.62	7752.49
3307.86	7707.75
3309.11	7723.57
3310.35	7733.67
3311.6	7692.31
3312.84	7685.56
3314.09	7688.21
3315.34	7681.08
3316.58	7649.99
3317.82	7643.46
3319.07	7624.42
3320.31	7635.28
3321.56	7634.97
3322.8	7637.79
3324.04	7654.62
3325.29	7634.6
3326.53	7607.97
3327.77	7581.76
3329.01	7598.34
3330.25	7580.28
3331.5	7565.19
3332.74	7560.75
3333.98	7529.17
3335.22	7546.56
3336.46	7519.47
3337.7	7533.88
3338.94	7498.74
3340.19	7489.4
3341.42	7469.63
3342.67	7465.27
3343.9	7450.36
3345.15	7412.62
3346.38	7441.65
3347.62	7405.57
3348.86	7421.04
3350.1	7396.02
3351.34	7409.43
3352.58	7385.38
3353.82	7397.96
3355.06	7356.11
3356.29	7354.79
3357.53	7349.95
3358.77	7333.84
3360	7338.53
3361.24	7327.59
3362.48	7338.71
3363.71	7286.74
3364.95	7282.47
3366.19	7276.81
3367.42	7272.06
3368.66	7268.78
3369.89	7254.72
3371.13	7282.06
3372.36	7262.14
3373.6	7263.53
3374.83	7248.12
3376.07	7232.15
3377.3	7255.74
3378.54	7223.45
3379.77	7216.73
3381	7183.93
3382.24	7193.31
3383.47	7178.93
3384.7	7136.27
3385.94	7130.2
3387.17	7122.05
3388.4	7110.82
3389.63	7132.7
3390.87	7101.45
3392.1	7104.18
3393.33	7113.63
3394.56	7077.54
3395.79	7075.94
3397.02	7077.31
3398.25	7100.98
3399.48	7054.43
3400.71	7085
3401.94	7047.36
3403.17	7027.25
3404.4	7030.1
3405.63	6996.47
3406.86	7010.14
3408.09	6985.7
3409.32	6982.33
3410.55	6950.81
3411.78	6967.42
3413	6956.97
3414.23	6932.57
3415.46	6925.13
3416.69	6938.44
3417.92	6911.06
3419.14	6889.57
3420.37	6879.05
3421.6	6883.69
3422.82	6868.2
3424.05	6885.34
3425.27	6853.55
3426.5	6832.08
3427.73	6783.52
3428.95	6795.58
3430.18	6808.63
3431.4	6766.1
3432.63	6755.36
3433.85	6771.5
3435.08	6780.74
3436.3	6743.9
3437.53	6736.98
3438.75	6715.57
3439.97	6697.19
3441.2	6663.01
3442.42	6650.36
3443.64	6645.82
3444.86	6644.84
3446.09	6636.9
3447.31	6632.08
3448.53	6611.68
3449.75	6623.98
3450.98	6560.67
3452.2	6589.78
3453.42	6556
3454.64	6524.53
3455.86	6544.54
3457.08	6546.12
3458.3	6521.16
3459.52	6506.41
3460.74	6495.96
3461.96	6474.89
3463.18	6474.93
3464.4	6411.68
3465.62	6415.2
3466.84	6390.29
3468.06	6395.08
3469.28	6394.94
3470.5	6384.89
3471.72	6340.42
3472.93	6340.93
3474.15	6318.26
3475.37	6317.66
3476.59	6286.96
3477.8	6274.71
3479.02	6239.13
3480.24	6228.06
3481.45	6217.72
3482.67	6196.67
3483.89	6190.45
3485.1	6156.05
3486.32	6154.67
3487.53	6120.6
3488.75	6133.69
3489.96	6120.46
3491.18	6084.83
3492.39	6067.96
3493.61	6063.69
3494.82	6020.17
3496.04	6052.58
3497.25	6007.4
3498.47	6002.17
3499.68	5972.1
